title: exp3_null, recorded: 21.11.18 16.02.51, timestamp started:2017-11-21T16:17:43.558438-08:00            , sampling:256, subject:, labels:COUNTER INTERPOLATED F3 FC5 AF3 F7 T7 P7 O1 O2 P8 T8 F8 AF4 FC6 F4 RAW_CQ GYROX GYROY MARKER MARKER_HARDWARE SYNC TIME_STAMP_s TIME_STAMP_ms CQ_AF3 CQ_F7 CQ_F3 CQ_FC5 CQ_T7 CQ_P7 CQ_O1 CQ_O2 CQ_P8 CQ_T8 CQ_FC6 CQ_F4 CQ_F8 CQ_AF4 CQ_CMS CQ_DRL, , chan:40, samples:5000, units:emotiv,,,,,,,,,,,,,,,,,,,,,,,,,
97,16,4136.794872,4137.692307,4139.230769,4122.948718,4135.384615,4135.128205,4078.076923,4121.538461,4121.794872,4138.589743,4091.923077,4137.948718,4126.025641,4141.410256,175,12,,,,,,,,,,,,,,,,,
98,16,4131.666666,4128.076923,4131.538461,4119.358974,4134.102564,4125.769231,4078.205128,4121.282051,4119.615384,4129.743589,4083.717948,4137.435897,4120.25641,4137.179487,159,13,,,,,,,,,,,,,,,,,
99,16,4132.051282,4127.948718,4130.897436,4118.589743,4129.615384,4123.974359,4080.641025,4121.153846,4126.282051,4122.179487,4088.076923,4140.384615,4128.974359,4141.153846,17,13,,,,,,,,,,,,,,,,,
100,16,4131.153846,4131.282051,4132.179487,4119.743589,4123.589743,4129.358974,4079.615384,4120.769231,4124.358974,4126.025641,4093.461538,4136.153846,4136.410256,4142.564102,133,13,,,,,,,,,,,,,,,,,
101,16,4123.974359,4128.846154,4127.179487,4115.641025,4125.25641,4132.179487,4081.153846,4120.769231,4123.589743,4141.538461,4086.538461,4133.205128,4130.769231,4138.846154,175,12,,,,,,,,,,,,,,,,,
102,16,4127.564102,4127.179487,4127.692307,4109.871795,4126.025641,4128.974359,4085.897436,4120.641025,4121.538461,4133.589743,4076.153846,4133.205128,4120.51282,4137.692307,159,13,,,,,,,,,,,,,,,,,
103,16,4128.205128,4126.794872,4120.769231,4106.153846,4123.461538,4124.102564,4089.358974,4119.487179,4118.076923,4120.897436,4075.51282,4127.692307,4118.846154,4138.589743,17,13,,,,,,,,,,,,,,,,,
104,16,4125.384615,4119.615384,4122.179487,4106.025641,4119.871795,4124.230769,4085.76923,4119.487179,4119.102564,4127.820513,4073.205128,4126.025641,4119.615384,4138.717949,133,13,,,,,,,,,,,,,,,,,
105,16,4125.51282,4121.923077,4126.794872,4107.564102,4115.25641,4125.769231,4085.51282,4121.025641,4127.307692,4134.230769,4074.358974,4132.692307,4123.461538,4140.384615,175,12,,,,,,,,,,,,,,,,,
106,16,4127.820513,4131.666666,4126.410256,4110.51282,4119.615384,4125.51282,4092.179487,4122.820513,4130.769231,4131.282051,4089.102564,4137.051282,4130.128205,4140.769231,159,13,,,,,,,,,,,,,,,,,
107,16,4134.358974,4130.641025,4133.974359,4115.384615,4126.410256,4126.025641,4096.153846,4123.589743,4124.871795,4128.846154,4091.282051,4138.205128,4130.897436,4139.358974,17,13,,,,,,,,,,,,,,,,,
108,16,4134.615384,4127.564102,4130.128205,4118.461538,4128.717948,4127.692307,4096.666666,4124.102564,4129.487179,4135.641025,4082.564102,4138.717949,4128.461538,4141.153846,133,13,,,,,,,,,,,,,,,,,
109,16,4139.487179,4133.846154,4131.025641,4121.282051,4129.102564,4133.846154,4099.871795,4125.128205,4137.692307,4135.51282,4085.51282,4134.871795,4127.564102,4148.461538,175,12,,,,,,,,,,,,,,,,,
110,16,4141.282051,4137.307692,4136.282051,4122.435897,4135,4139.230769,4108.461538,4125.51282,4136.410256,4126.410256,4094.871795,4135.641025,4132.435897,4150.384615,159,13,,,,,,,,,,,,,,,,,
111,16,4131.538461,4136.025641,4130.51282,4122.179487,4142.307692,4138.717949,4110.51282,4124.358974,4136.282051,4133.974359,4098.846154,4142.051282,4137.179487,4145,17,13,,,,,,,,,,,,,,,,,
112,16,4133.974359,4134.102564,4132.820513,4122.435897,4133.076923,4136.410256,4106.153846,4124.615384,4137.435897,4150.641025,4100.25641,4140,4132.179487,4143.846154,133,13,,,,,,,,,,,,,,,,,
113,16,4131.410256,4127.820513,4125.384615,4117.051282,4125.384615,4130,4107.948718,4127.051282,4134.871795,4147.820513,4096.666666,4129.743589,4125.897436,4142.564102,175,12,,,,,,,,,,,,,,,,,
114,16,4123.333333,4123.076923,4120.25641,4110.51282,4121.282051,4125.128205,4108.076923,4125.641025,4127.051282,4126.923077,4089.743589,4127.564102,4122.179487,4137.051282,159,13,,,,,,,,,,,,,,,,,
115,16,4127.692307,4128.076923,4127.051282,4111.538461,4116.666666,4127.564102,4105.25641,4121.794872,4124.102564,4120.51282,4093.717948,4131.794872,4121.282051,4136.923077,17,13,,,,,,,,,,,,,,,,,
116,16,4129.230769,4136.282051,4124.615384,4114.102564,4127.948718,4127.179487,4105.897436,4122.564102,4131.794872,4128.717948,4098.461538,4129.230769,4125.384615,4139.358974,133,13,,,,,,,,,,,,,,,,,
117,16,4128.974359,4129.230769,4125.128205,4111.923077,4130.897436,4124.615384,4110.128205,4125.25641,4132.307692,4128.076923,4091.538461,4126.538461,4125.641025,4136.794872,175,12,,,,,,,,,,,,,,,,,
118,16,4128.205128,4122.564102,4127.820513,4110.51282,4121.410256,4125,4114.743589,4125.128205,4130.897436,4124.487179,4094.743589,4134.230769,4127.179487,4137.564102,159,13,,,,,,,,,,,,,,,,,
119,16,4129.487179,4127.692307,4132.435897,4113.076923,4118.717948,4125.641025,4116.153846,4124.358974,4133.205128,4124.230769,4101.153846,4138.205128,4129.230769,4142.564102,17,13,,,,,,,,,,,,,,,,,
120,16,4133.333333,4128.717948,4132.692307,4117.051282,4118.974359,4128.333333,4120.51282,4124.615384,4134.743589,4130.641025,4097.564102,4135.384615,4125.641025,4139.615384,133,13,,,,,,,,,,,,,,,,,
121,16,4134.615384,4131.025641,4130.641025,4119.743589,4123.076923,4131.282051,4126.794872,4123.974359,4135.641025,4143.974359,4098.589743,4140.25641,4128.974359,4140.25641,175,12,,,,,,,,,,,,,,,,,
122,16,4138.717949,4131.410256,4137.948718,4115.769231,4122.435897,4127.948718,4121.794872,4123.333333,4129.743589,4137.820513,4097.307692,4144.358974,4130.51282,4148.461538,159,13,,,,,,,,,,,,,,,,,
123,16,4133.589743,4125.641025,4130.384615,4108.461538,4119.871795,4123.461538,4118.205128,4122.435897,4125.25641,4123.333333,4093.974359,4140.25641,4126.153846,4145.641025,17,13,,,,,,,,,,,,,,,,,
124,16,4129.102564,4125.128205,4126.410256,4107.564102,4120.769231,4124.615384,4125.769231,4121.538461,4125.51282,4125.641025,4093.974359,4137.435897,4123.846154,4139.230769,133,13,,,,,,,,,,,,,,,,,
125,16,4134.871795,4131.794872,4138.205128,4114.871795,4120.25641,4125.384615,4126.153846,4122.564102,4129.230769,4131.538461,4094.615384,4140,4127.564102,4146.923077,175,12,,,,,,,,,,,,,,,,,
126,16,4136.538461,4134.230769,4135.641025,4118.846154,4121.666666,4123.589743,4123.974359,4123.846154,4137.307692,4128.846154,4100.128205,4142.435897,4134.743589,4155,159,13,,,,,,,,,,,,,,,,,
127,16,4137.435897,4132.820513,4132.564102,4111.538461,4118.974359,4123.076923,4120.897436,4123.717948,4132.692307,4121.794872,4093.333333,4136.410256,4129.487179,4151.666666,54,0,,,,,,,,,,,,,,,,,
0,16,4135.384615,4135.641025,4131.666666,4111.282051,4120.128205,4122.692307,4118.461538,4122.948718,4125.897436,4124.743589,4084.743589,4135.897436,4122.692307,4147.948718,213,11,,,,,,,,,,,,,,,,,
1,16,4135.897436,4133.974359,4134.102564,4119.871795,4122.179487,4122.692307,4125.128205,4122.948718,4128.589743,4125,4090,4142.564102,4127.051282,4145.897436,241,12,,,,,,,,,,,,,,,,,
2,16,4136.794872,4125.897436,4135,4117.948718,4115.384615,4124.487179,4127.692307,4123.589743,4128.076923,4114.230769,4086.025641,4136.025641,4124.358974,4140,236,10,,,,,,,,,,,,,,,,,
3,16,4130.641025,4129.358974,4128.717948,4115.384615,4121.666666,4125.25641,4124.615384,4123.333333,4130.128205,4125.128205,4081.282051,4130.641025,4121.794872,4139.487179,63,12,,,,,,,,,,,,,,,,,
4,16,4134.743589,4135.25641,4136.025641,4119.743589,4131.794872,4126.025641,4126.666666,4122.692307,4133.333333,4143.205128,4087.435897,4139.487179,4126.025641,4143.846154,3,14,,,,,,,,,,,,,,,,,
5,16,4132.948718,4128.333333,4129.230769,4115.769231,4127.564102,4126.794872,4133.717948,4124.102564,4131.666666,4138.846154,4088.717948,4134.871795,4125.25641,4141.410256,234,8,,,,,,,,,,,,,,,,,
6,16,4122.051282,4118.461538,4116.538461,4108.333333,4122.179487,4124.615384,4127.692307,4124.743589,4130.641025,4124.871795,4081.282051,4121.666666,4120.641025,4134.871795,154,12,,,,,,,,,,,,,,,,,
7,16,4126.025641,4118.461538,4125.384615,4110,4120.641025,4123.205128,4117.051282,4123.333333,4124.615384,4114.230769,4074.102564,4125.25641,4117.435897,4135.128205,76,5,,,,,,,,,,,,,,,,,
8,16,4127.692307,4122.307692,4125.128205,4110.897436,4118.717948,4125.384615,4122.564102,4119.358974,4116.282051,4108.589743,4068.846153,4130.25641,4113.076923,4137.051282,129,12,,,,,,,,,,,,,,,,,
9,16,4123.333333,4117.564102,4118.974359,4104.743589,4114.102564,4125.897436,4125.897436,4116.025641,4109.230769,4102.179487,4056.794871,4120.51282,4103.076923,4130,145,13,,,,,,,,,,,,,,,,,
10,16,4121.153846,4115.384615,4115.128205,4102.564102,4115.897436,4124.102564,4122.948718,4118.205128,4110.769231,4094.743589,4053.205128,4113.333333,4100.897436,4127.435897,45,13,,,,,,,,,,,,,,,,,
11,16,4126.025641,4124.358974,4120.51282,4111.666666,4121.153846,4124.487179,4129.487179,4122.820513,4120.769231,4097.820512,4068.076923,4125.51282,4110.51282,4136.410256,16,13,,,,,,,,,,,,,,,,,
12,16,4135.51282,4130.51282,4133.589743,4121.666666,4120.769231,4125.384615,4135,4122.820513,4123.589743,4108.589743,4077.307692,4134.358974,4116.538461,4141.794872,23,13,,,,,,,,,,,,,,,,,
13,16,4128.589743,4128.589743,4126.410256,4115.769231,4122.307692,4122.820513,4129.358974,4120.25641,4125.769231,4123.974359,4074.487179,4129.871795,4118.717948,4139.230769,174,12,,,,,,,,,,,,,,,,,
14,16,4122.564102,4122.692307,4121.410256,4105.25641,4114.615384,4122.820513,4128.589743,4122.179487,4127.820513,4130.384615,4072.179487,4128.461538,4118.846154,4136.025641,45,13,,,,,,,,,,,,,,,,,
15,16,4123.461538,4119.743589,4124.230769,4109.743589,4113.076923,4126.153846,4137.307692,4124.487179,4127.435897,4120.384615,4076.666666,4130.128205,4119.358974,4135.641025,16,13,,,,,,,,,,,,,,,,,
16,16,4123.974359,4125.641025,4125.128205,4120.25641,4125.51282,4126.153846,4139.102564,4122.435897,4129.615384,4119.487179,4078.589743,4130.769231,4121.153846,4137.820513,0,0,,,,,,,,,,,,,,,,,
17,16,4133.076923,4131.538461,4132.179487,4122.692307,4122.435897,4124.230769,4133.846154,4119.743589,4126.923077,4124.487179,4072.820512,4133.461538,4120.384615,4140.769231,0,0,,,,,,,,,,,,,,,,,
18,16,4135,4132.692307,4130.25641,4121.025641,4119.615384,4122.435897,4136.410256,4120,4126.153846,4126.025641,4076.153846,4140.384615,4125.128205,4142.948718,0,0,,,,,,,,,,,,,,,,,
19,16,4132.820513,4133.076923,4133.717948,4123.461538,4128.461538,4123.076923,4140.51282,4122.820513,4130.769231,4129.743589,4083.717948,4141.794872,4130.384615,4145.25641,0,0,,,,,,,,,,,,,,,,,
20,16,4132.564102,4131.282051,4136.025641,4125.384615,4127.051282,4126.153846,4140.769231,4123.076923,4134.358974,4132.692307,4082.435897,4138.589743,4130.128205,4144.615384,0,0,,,,,,,,,,,,,,,,,
21,16,4126.538461,4128.461538,4126.153846,4122.435897,4122.435897,4125.897436,4147.435897,4122.564102,4136.410256,4133.076923,4081.410256,4137.051282,4130.51282,4140.128205,0,0,,,,,,,,,,,,,,,,,
22,16,4126.153846,4129.487179,4131.410256,4125,4127.435897,4126.410256,4151.153846,4123.846154,4135.897436,4130,4085.897436,4136.153846,4130.641025,4138.717949,0,0,,,,,,,,,,,,,,,,,
23,16,4127.435897,4134.615384,4131.282051,4131.153846,4136.794872,4126.282051,4149.74359,4123.333333,4139.487179,4141.282051,4095.128205,4140.641025,4132.307692,4139.74359,0,0,,,,,,,,,,,,,,,,,
24,16,4131.794872,4132.307692,4128.589743,4128.846154,4134.615384,4123.589743,4152.564102,4124.615384,4141.538461,4152.179487,4094.487179,4141.538461,4128.846154,4142.692307,0,0,,,,,,,,,,,,,,,,,
25,16,4137.820513,4130.25641,4135.769231,4130.384615,4131.025641,4128.717948,4155.641025,4129.230769,4139.871795,4148.076923,4087.179487,4139.230769,4125.897436,4147.179487,0,0,,,,,,,,,,,,,,,,,
26,16,4137.179487,4138.076923,4136.794872,4138.333333,4131.794872,4134.487179,4153.205128,4127.179487,4140.769231,4145.641025,4089.230769,4142.948718,4132.564102,4148.205128,0,0,,,,,,,,,,,,,,,,,
27,16,4133.846154,4133.589743,4133.974359,4131.666666,4126.282051,4128.589743,4151.282051,4120.897436,4134.487179,4136.666666,4085.384615,4140.128205,4126.923077,4141.666666,0,0,,,,,,,,,,,,,,,,,
28,16,4124.102564,4121.923077,4123.846154,4117.692307,4124.102564,4122.307692,4156.666666,4121.923077,4131.153846,4131.538461,4076.282051,4129.871795,4116.153846,4132.564102,0,0,,,,,,,,,,,,,,,,,
29,16,4117.948718,4119.102564,4120,4117.307692,4124.230769,4125.641025,4155.769231,4123.589743,4131.666666,4125.641025,4076.025641,4125.128205,4117.692307,4128.974359,0,0,,,,,,,,,,,,,,,,,
30,16,4118.846154,4118.333333,4121.153846,4121.923077,4120.384615,4125.769231,4148.589743,4122.179487,4126.410256,4118.589743,4081.794871,4122.564102,4118.205128,4128.846154,0,0,,,,,,,,,,,,,,,,,
31,16,4115.641025,4115.897436,4116.538461,4120.25641,4119.615384,4120.769231,4151.025641,4122.179487,4127.435897,4125.25641,4089.102564,4121.923077,4116.538461,4130.25641,0,0,,,,,,,,,,,,,,,,,
32,16,4120.641025,4116.153846,4124.743589,4118.974359,4116.153846,4123.205128,4151.538461,4121.666666,4128.076923,4126.538461,4091.666666,4130.384615,4117.692307,4136.153846,0,0,,,,,,,,,,,,,,,,,
33,16,4124.487179,4119.743589,4123.076923,4121.410256,4116.538461,4125.897436,4146.410256,4120.769231,4122.692307,4121.794872,4093.205128,4133.076923,4119.358974,4137.435897,0,0,,,,,,,,,,,,,,,,,
34,16,4122.051282,4118.846154,4117.948718,4123.076923,4120.769231,4122.051282,4143.076923,4120.769231,4119.230769,4123.076923,4095.128205,4127.692307,4115.51282,4130.769231,0,0,,,,,,,,,,,,,,,,,
35,16,4122.692307,4117.051282,4129.487179,4124.743589,4118.589743,4122.692307,4141.538461,4121.153846,4123.333333,4128.846154,4099.358974,4130.384615,4114.358974,4131.666666,0,0,,,,,,,,,,,,,,,,,
36,16,4120,4120.51282,4130.641025,4125.25641,4117.179487,4123.974359,4140.897436,4120.897436,4130,4130.769231,4106.410256,4135.51282,4123.076923,4138.076923,0,0,,,,,,,,,,,,,,,,,
37,16,4118.974359,4117.051282,4123.205128,4118.717948,4109.358974,4117.948718,4136.025641,4117.948718,4121.025641,4118.846154,4099.743589,4128.461538,4119.102564,4129.871795,0,0,,,,,,,,,,,,,,,,,
38,16,4114.615384,4110.769231,4114.230769,4112.435897,4101.153846,4116.794872,4139.74359,4116.923077,4112.948718,4112.564102,4089.230769,4120.51282,4108.076923,4121.282051,0,0,,,,,,,,,,,,,,,,,
39,16,4113.461538,4114.487179,4117.692307,4117.820513,4105.897436,4123.717948,4152.307692,4120.25641,4123.717948,4114.358974,4093.589743,4124.102564,4112.307692,4130.384615,0,0,,,,,,,,,,,,,,,,,
40,16,4119.871795,4116.666666,4125.897436,4123.717948,4110.897436,4123.974359,4150,4122.692307,4132.179487,4107.820513,4099.102564,4125.25641,4117.948718,4137.692307,0,0,,,,,,,,,,,,,,,,,
41,16,4114.230769,4115.769231,4115.384615,4120.769231,4113.717948,4120.51282,4143.461538,4120.769231,4130,4118.205128,4098.589743,4121.794872,4118.461538,4133.846154,0,0,,,,,,,,,,,,,,,,,
42,16,4115.51282,4117.564102,4118.205128,4119.487179,4111.923077,4123.076923,4148.205128,4121.153846,4127.307692,4140.384615,4099.230769,4126.282051,4121.153846,4133.461538,0,0,,,,,,,,,,,,,,,,,
43,16,4122.179487,4117.307692,4125.769231,4123.461538,4111.923077,4122.435897,4150.128205,4122.564102,4130.384615,4138.205128,4105.769231,4133.333333,4126.153846,4137.179487,0,0,,,,,,,,,,,,,,,,,
44,16,4120.769231,4117.692307,4122.307692,4124.358974,4114.615384,4121.410256,4145.128205,4121.153846,4130.25641,4126.794872,4106.025641,4133.461538,4123.974359,4136.666666,0,0,,,,,,,,,,,,,,,,,
45,16,4120,4117.051282,4124.230769,4119.487179,4108.717948,4123.974359,4149.871795,4120.384615,4121.794872,4118.717948,4093.974359,4126.025641,4111.794872,4133.589743,0,0,,,,,,,,,,,,,,,,,
46,16,4115.51282,4114.230769,4120,4115.25641,4111.153846,4123.333333,4159.230769,4121.410256,4125.897436,4116.025641,4091.410256,4123.461538,4111.153846,4133.846154,0,0,,,,,,,,,,,,,,,,,
47,16,4120,4115.641025,4121.410256,4120.51282,4118.076923,4123.717948,4161.538461,4123.333333,4135.384615,4121.410256,4097.948718,4129.871795,4121.282051,4136.025641,0,0,,,,,,,,,,,,,,,,,
48,16,4128.076923,4120.25641,4123.205128,4125,4114.358974,4125,4161.153846,4123.205128,4132.435897,4120.641025,4098.846154,4131.153846,4122.948718,4137.179487,0,0,,,,,,,,,,,,,,,,,
49,16,4126.025641,4122.435897,4122.179487,4123.589743,4115.641025,4124.743589,4159.230769,4123.717948,4129.743589,4115.51282,4102.692307,4129.871795,4123.333333,4138.076923,0,0,,,,,,,,,,,,,,,,,
50,16,4128.461538,4125,4133.717948,4126.538461,4122.564102,4125.25641,4155.897436,4126.153846,4130.897436,4127.051282,4109.102564,4135.51282,4129.615384,4140.641025,0,0,,,,,,,,,,,,,,,,,
51,16,4127.307692,4126.794872,4131.025641,4128.205128,4123.205128,4125.769231,4153.846154,4124.743589,4130.769231,4143.333333,4112.051282,4141.538461,4133.717948,4142.179487,0,0,,,,,,,,,,,,,,,,,
52,16,4120.769231,4119.230769,4121.153846,4122.307692,4118.717948,4123.076923,4149.871795,4121.923077,4125.25641,4132.564102,4104.871795,4135.51282,4123.333333,4137.564102,0,0,,,,,,,,,,,,,,,,,
53,16,4116.923077,4114.871795,4120.384615,4120.25641,4119.358974,4122.179487,4145.51282,4122.051282,4124.102564,4119.487179,4096.538461,4126.923077,4116.666666,4132.564102,0,0,,,,,,,,,,,,,,,,,
54,16,4118.974359,4120.769231,4121.025641,4122.692307,4126.025641,4124.487179,4149.487179,4124.102564,4134.102564,4127.692307,4103.205128,4130.384615,4128.205128,4135.641025,0,0,,,,,,,,,,,,,,,,,
55,16,4124.743589,4122.435897,4124.871795,4123.461538,4126.153846,4123.974359,4151.153846,4124.358974,4136.794872,4125.769231,4107.948718,4134.871795,4128.974359,4140,0,0,,,,,,,,,,,,,,,,,
56,16,4121.025641,4120.897436,4121.025641,4123.589743,4122.564102,4123.461538,4146.538461,4122.564102,4130.769231,4115.384615,4102.435897,4133.205128,4122.179487,4138.589743,0,0,,,,,,,,,,,,,,,,,
57,16,4121.282051,4119.615384,4122.820513,4122.948718,4117.564102,4123.974359,4143.205128,4121.282051,4121.410256,4113.076923,4094.615384,4129.871795,4118.589743,4135.641025,0,0,,,,,,,,,,,,,,,,,
58,16,4129.358974,4122.435897,4129.871795,4123.076923,4114.487179,4125.641025,4143.333333,4121.666666,4118.846154,4114.615384,4097.435897,4134.230769,4118.076923,4135.769231,0,0,,,,,,,,,,,,,,,,,
59,16,4128.974359,4127.948718,4130.897436,4126.153846,4121.538461,4125.51282,4144.487179,4121.794872,4127.435897,4120.769231,4108.589743,4144.358974,4125.128205,4141.410256,0,0,,,,,,,,,,,,,,,,,
60,16,4123.205128,4125.641025,4130,4125.641025,4122.692307,4125,4137.051282,4120.51282,4125.769231,4119.102564,4098.846154,4140.25641,4122.179487,4139.871795,0,0,,,,,,,,,,,,,,,,,
61,16,4114.230769,4119.615384,4116.410256,4118.076923,4120,4126.282051,4132.051282,4120.641025,4119.487179,4114.102564,4082.820512,4125.25641,4111.282051,4126.666666,0,0,,,,,,,,,,,,,,,,,
62,16,4113.974359,4115.641025,4114.230769,4115.25641,4120.25641,4126.794872,4133.205128,4123.846154,4120.51282,4116.282051,4084.615384,4117.564102,4108.974359,4120.641025,0,0,,,,,,,,,,,,,,,,,
63,16,4121.025641,4118.205128,4124.743589,4120.641025,4120.384615,4127.820513,4131.666666,4125.384615,4123.974359,4118.076923,4093.205128,4120.897436,4114.102564,4129.230769,0,0,,,,,,,,,,,,,,,,,
64,16,4119.743589,4126.794872,4124.743589,4123.076923,4125.641025,4127.051282,4132.051282,4123.333333,4131.153846,4121.282051,4098.974359,4130.769231,4120.25641,4138.333333,217,11,,,,,,,,,,,,,,,,,
65,16,4121.538461,4124.871795,4128.717948,4123.461538,4123.333333,4127.179487,4130.384615,4122.820513,4133.205128,4122.820513,4097.948718,4133.461538,4122.564102,4136.282051,241,12,,,,,,,,,,,,,,,,,
66,16,4117.948718,4113.846154,4120.897436,4120.897436,4116.923077,4127.948718,4127.692307,4123.974359,4127.820513,4118.846154,4091.153846,4124.102564,4119.743589,4128.205128,240,10,,,,,,,,,,,,,,,,,
67,16,4110.51282,4111.794872,4112.564102,4111.666666,4116.666666,4126.025641,4128.076923,4121.794872,4120.25641,4113.589743,4085.51282,4116.538461,4111.025641,4121.666666,63,12,,,,,,,,,,,,,,,,,
68,16,4114.487179,4117.051282,4119.102564,4111.666666,4120.641025,4128.717948,4126.923077,4120.128205,4122.564102,4120.128205,4090.897436,4118.589743,4111.923077,4125.51282,254,13,,,,,,,,,,,,,,,,,
69,16,4119.743589,4122.564102,4119.871795,4124.615384,4128.846154,4131.923077,4123.717948,4123.076923,4136.794872,4140.897436,4104.487179,4126.666666,4126.025641,4136.282051,234,8,,,,,,,,,,,,,,,,,
70,16,4124.487179,4121.794872,4125.769231,4127.307692,4122.051282,4127.435897,4120.641025,4125.128205,4132.948718,4138.846154,4106.282051,4132.307692,4128.846154,4138.205128,153,12,,,,,,,,,,,,,,,,,
71,16,4120.25641,4116.025641,4126.410256,4118.461538,4111.025641,4120.641025,4117.692307,4122.307692,4119.102564,4124.615384,4102.051282,4131.666666,4123.589743,4132.179487,62,5,,,,,,,,,,,,,,,,,
72,16,4120,4116.666666,4124.615384,4118.846154,4115.769231,4123.589743,4115.384615,4120.641025,4125.128205,4125.769231,4105.769231,4132.692307,4126.538461,4135.384615,131,12,,,,,,,,,,,,,,,,,
73,16,4128.205128,4122.051282,4127.179487,4125.25641,4124.743589,4128.846154,4116.923077,4123.717948,4134.871795,4130,4109.358974,4136.538461,4132.692307,4143.846154,141,13,,,,,,,,,,,,,,,,,
74,16,4116.538461,4122.948718,4119.487179,4123.205128,4130.25641,4126.410256,4117.179487,4124.871795,4131.153846,4141.153846,4108.974359,4136.025641,4134.487179,4136.025641,30,13,,,,,,,,,,,,,,,,,
75,16,4109.615384,4118.589743,4121.538461,4120.641025,4121.923077,4123.461538,4107.692307,4122.820513,4120.897436,4141.282051,4106.666666,4129.487179,4130.384615,4126.923077,16,13,,,,,,,,,,,,,,,,,
76,16,4115.384615,4117.435897,4121.410256,4122.820513,4114.102564,4123.589743,4103.461538,4121.410256,4119.487179,4120,4103.076923,4126.410256,4126.666666,4131.025641,5,13,,,,,,,,,,,,,,,,,
77,16,4114.871795,4118.717948,4116.666666,4117.179487,4119.358974,4124.230769,4111.410256,4122.307692,4122.564102,4116.282051,4097.307692,4124.871795,4126.153846,4134.230769,174,12,,,,,,,,,,,,,,,,,
78,16,4117.435897,4116.153846,4122.948718,4113.076923,4123.076923,4124.102564,4114.871795,4123.974359,4123.205128,4135.51282,4093.461538,4123.461538,4124.358974,4132.820513,30,13,,,,,,,,,,,,,,,,,
79,16,4119.743589,4116.410256,4119.358974,4118.717948,4125,4124.615384,4114.743589,4124.358974,4128.589743,4141.282051,4095.897436,4125.384615,4123.333333,4136.153846,16,13,,,,,,,,,,,,,,,,,
80,16,4121.025641,4116.666666,4118.333333,4118.076923,4120.897436,4125.25641,4113.589743,4123.333333,4128.717948,4125.384615,4092.820512,4123.974359,4122.307692,4139.230769,5,13,,,,,,,,,,,,,,,,,
81,16,4118.076923,4115.128205,4118.333333,4110.897436,4115.51282,4125.769231,4112.820513,4123.974359,4125,4124.230769,4090.384615,4119.743589,4122.820513,4132.179487,174,12,,,,,,,,,,,,,,,,,
82,16,4116.153846,4118.333333,4116.025641,4110.25641,4117.820513,4126.923077,4116.410256,4125.384615,4128.846154,4136.282051,4092.692307,4120.897436,4121.794872,4129.615384,30,13,,,,,,,,,,,,,,,,,
83,16,4119.743589,4118.333333,4118.974359,4113.205128,4119.615384,4124.871795,4113.333333,4122.435897,4124.871795,4122.564102,4086.410256,4121.538461,4115.128205,4132.820513,16,13,,,,,,,,,,,,,,,,,
84,16,4115,4113.717948,4113.846154,4111.794872,4119.487179,4120.25641,4108.589743,4119.871795,4116.666666,4102.564102,4084.615384,4117.435897,4113.846154,4129.871795,5,13,,,,,,,,,,,,,,,,,
85,16,4113.589743,4110.384615,4117.179487,4108.974359,4112.692307,4120.897436,4108.076923,4122.692307,4114.230769,4102.948718,4083.846154,4114.743589,4110.769231,4123.461538,174,12,,,,,,,,,,,,,,,,,
86,16,4112.564102,4110.769231,4118.461538,4111.153846,4109.487179,4123.461538,4109.487179,4122.179487,4118.846154,4112.564102,4079.102564,4112.692307,4106.410256,4121.794872,30,13,,,,,,,,,,,,,,,,,
87,16,4105.384615,4112.564102,4109.743589,4112.820513,4112.435897,4121.794872,4111.923077,4119.230769,4121.923077,4119.487179,4079.615384,4113.589743,4110.641025,4123.333333,16,13,,,,,,,,,,,,,,,,,
88,16,4109.743589,4110.51282,4111.794872,4111.538461,4110.128205,4121.410256,4112.820513,4121.153846,4113.717948,4118.333333,4080.897436,4114.487179,4108.974359,4121.666666,5,13,,,,,,,,,,,,,,,,,
89,16,4114.487179,4111.794872,4112.820513,4115.769231,4114.871795,4124.358974,4116.410256,4123.333333,4115.384615,4120.384615,4087.564102,4113.589743,4108.846154,4122.179487,174,12,,,,,,,,,,,,,,,,,
90,16,4116.923077,4115.128205,4118.205128,4120.769231,4120.25641,4126.025641,4117.692307,4121.282051,4118.205128,4117.564102,4089.358974,4114.871795,4111.410256,4124.102564,30,13,,,,,,,,,,,,,,,,,
91,16,4117.564102,4116.282051,4119.743589,4118.333333,4117.692307,4123.974359,4114.102564,4119.230769,4113.717948,4113.461538,4083.846154,4120.128205,4109.487179,4124.358974,16,13,,,,,,,,,,,,,,,,,
92,16,4116.538461,4118.205128,4115.25641,4120.25641,4120.897436,4122.051282,4114.487179,4119.230769,4117.179487,4120.25641,4090,4125.641025,4113.589743,4125.897436,5,13,,,,,,,,,,,,,,,,,
93,16,4121.025641,4116.666666,4122.692307,4122.435897,4123.333333,4123.461538,4115.897436,4119.358974,4114.102564,4107.179487,4090.128205,4121.025641,4115.641025,4125.384615,174,12,,,,,,,,,,,,,,,,,
94,16,4117.564102,4112.564102,4120.641025,4116.538461,4120.384615,4125.51282,4117.820513,4118.589743,4109.871795,4096.666666,4081.666666,4118.717948,4111.538461,4122.435897,30,13,,,,,,,,,,,,,,,,,
95,16,4117.692307,4113.333333,4122.435897,4119.230769,4120,4126.410256,4123.846154,4119.230769,4116.282051,4115,4084.358974,4127.179487,4109.358974,4127.692307,16,13,,,,,,,,,,,,,,,,,
96,16,4124.102564,4122.179487,4129.358974,4127.820513,4120.897436,4129.358974,4131.538461,4121.538461,4122.820513,4132.307692,4092.820512,4132.179487,4112.820513,4136.538461,5,13,,,,,,,,,,,,,,,,,
97,16,4121.282051,4127.179487,4121.666666,4125.641025,4120.641025,4128.205128,4132.435897,4123.589743,4125.384615,4129.743589,4091.153846,4128.205128,4116.538461,4131.538461,174,12,,,,,,,,,,,,,,,,,
98,16,4122.948718,4121.282051,4123.205128,4121.025641,4119.358974,4125.51282,4130.384615,4123.846154,4126.666666,4120.128205,4082.564102,4121.538461,4113.205128,4125.384615,30,13,,,,,,,,,,,,,,,,,
99,16,4123.333333,4119.615384,4122.179487,4119.102564,4126.025641,4130.769231,4138.333333,4123.076923,4127.692307,4123.333333,4083.076923,4121.794872,4115.128205,4133.333333,16,13,,,,,,,,,,,,,,,,,
100,16,4124.230769,4122.948718,4120.25641,4120.128205,4131.153846,4132.820513,4141.282051,4123.333333,4126.025641,4123.333333,4092.179487,4129.358974,4123.461538,4142.051282,5,13,,,,,,,,,,,,,,,,,
101,16,4127.179487,4122.307692,4125.641025,4122.435897,4124.871795,4130.51282,4133.974359,4123.205128,4123.205128,4107.948718,4095.76923,4130.51282,4122.051282,4135.769231,174,12,,,,,,,,,,,,,,,,,
102,16,4119.871795,4120.769231,4122.307692,4120.25641,4122.307692,4130,4133.846154,4122.051282,4123.461538,4110.641025,4092.051282,4122.564102,4117.820513,4127.564102,30,13,,,,,,,,,,,,,,,,,
103,16,4122.948718,4122.948718,4126.794872,4123.974359,4122.051282,4129.102564,4137.051282,4122.179487,4122.692307,4132.179487,4090,4127.179487,4118.974359,4131.923077,16,13,,,,,,,,,,,,,,,,,
104,16,4129.615384,4126.666666,4129.487179,4132.307692,4125.128205,4126.666666,4132.948718,4121.923077,4122.820513,4138.589743,4097.692307,4138.717949,4126.025641,4140.641025,5,13,,,,,,,,,,,,,,,,,
105,16,4124.871795,4124.230769,4124.615384,4128.205128,4128.846154,4127.051282,4130.25641,4120.769231,4124.102564,4130,4100.128205,4129.615384,4125.769231,4140,174,12,,,,,,,,,,,,,,,,,
106,16,4120.384615,4115.384615,4120.641025,4119.358974,4122.692307,4128.205128,4132.820513,4123.205128,4122.820513,4126.666666,4090.384615,4115.769231,4114.743589,4129.358974,30,13,,,,,,,,,,,,,,,,,
107,16,4117.051282,4114.743589,4114.358974,4119.871795,4117.692307,4127.692307,4136.153846,4126.282051,4124.743589,4122.692307,4089.743589,4121.794872,4112.692307,4124.230769,16,13,,,,,,,,,,,,,,,,,
108,16,4121.410256,4118.974359,4121.794872,4122.820513,4117.820513,4131.153846,4138.974359,4124.615384,4124.230769,4108.846154,4090.384615,4125.25641,4113.717948,4130,5,13,,,,,,,,,,,,,,,,,
109,16,4124.871795,4118.205128,4126.153846,4121.666666,4119.487179,4127.948718,4142.435897,4122.051282,4121.025641,4114.230769,4084.487179,4120.769231,4112.307692,4136.282051,174,12,,,,,,,,,,,,,,,,,
110,16,4123.589743,4118.717948,4124.871795,4120.641025,4121.410256,4122.692307,4144.74359,4124.743589,4123.076923,4129.871795,4090.128205,4129.487179,4118.974359,4137.820513,30,13,,,,,,,,,,,,,,,,,
111,16,4128.333333,4121.153846,4130.51282,4122.051282,4120.897436,4129.743589,4144.230769,4127.948718,4125.25641,4124.230769,4097.692307,4137.948718,4125.51282,4138.717949,16,13,,,,,,,,,,,,,,,,,
112,16,4127.307692,4122.564102,4122.692307,4121.923077,4123.333333,4132.307692,4147.051282,4126.666666,4130.641025,4126.025641,4099.358974,4133.333333,4126.025641,4139.487179,5,13,,,,,,,,,,,,,,,,,
113,16,4127.179487,4122.948718,4124.615384,4121.538461,4120.51282,4127.820513,4149.487179,4124.615384,4132.692307,4141.410256,4102.179487,4132.435897,4126.025641,4139.358974,174,12,,,,,,,,,,,,,,,,,
114,16,4131.538461,4125.51282,4132.051282,4126.153846,4120.384615,4133.333333,4148.589743,4125.25641,4132.564102,4142.692307,4106.538461,4138.076923,4130.51282,4143.333333,30,13,,,,,,,,,,,,,,,,,
115,16,4132.179487,4132.179487,4126.794872,4129.871795,4135.25641,4139.615384,4149.871795,4128.589743,4137.307692,4134.743589,4106.282051,4138.846154,4131.666666,4143.461538,16,13,,,,,,,,,,,,,,,,,
116,16,4133.717948,4132.564102,4129.358974,4126.923077,4137.051282,4133.846154,4150.128205,4128.461538,4134.615384,4132.820513,4101.666666,4133.461538,4124.358974,4138.333333,5,13,,,,,,,,,,,,,,,,,
117,16,4127.435897,4126.923077,4127.179487,4122.435897,4128.717948,4128.333333,4148.461538,4122.564102,4131.282051,4137.948718,4097.948718,4129.615384,4122.051282,4138.717949,174,12,,,,,,,,,,,,,,,,,
118,16,4125.769231,4121.666666,4125.25641,4123.461538,4125.641025,4130,4147.435897,4122.051282,4132.307692,4137.435897,4091.153846,4129.487179,4122.307692,4140.384615,30,13,,,,,,,,,,,,,,,,,
119,16,4130,4121.666666,4125,4124.615384,4127.948718,4127.692307,4151.666666,4124.487179,4131.666666,4128.461538,4091.538461,4128.717948,4119.230769,4136.794872,16,13,,,,,,,,,,,,,,,,,
120,16,4128.205128,4127.692307,4125,4123.205128,4132.948718,4126.282051,4152.564102,4123.461538,4134.743589,4123.846154,4102.948718,4129.743589,4123.333333,4136.538461,5,13,,,,,,,,,,,,,,,,,
121,16,4130.641025,4129.743589,4133.589743,4128.076923,4128.205128,4128.717948,4149.358974,4125.897436,4138.589743,4131.794872,4105.769231,4135.25641,4127.692307,4139.74359,174,12,,,,,,,,,,,,,,,,,
122,16,4131.282051,4130.128205,4131.538461,4133.589743,4129.743589,4127.179487,4156.410256,4130,4141.153846,4142.564102,4106.025641,4141.538461,4130,4141.794872,30,13,,,,,,,,,,,,,,,,,
123,16,4135.641025,4133.717948,4135.25641,4131.794872,4135,4127.051282,4160.897436,4131.410256,4138.717949,4138.461538,4109.871795,4143.205128,4130.128205,4143.333333,16,13,,,,,,,,,,,,,,,,,
124,16,4137.051282,4134.487179,4139.358974,4127.051282,4134.358974,4132.051282,4156.666666,4134.487179,4138.846154,4132.307692,4105.641025,4138.076923,4126.666666,4140.897436,5,13,,,,,,,,,,,,,,,,,
125,16,4127.307692,4129.358974,4130.641025,4124.487179,4135.25641,4132.051282,4154.615384,4134.230769,4142.564102,4139.358974,4096.923077,4132.820513,4124.871795,4137.564102,174,12,,,,,,,,,,,,,,,,,
126,16,4127.820513,4127.692307,4132.435897,4123.717948,4132.692307,4129.615384,4153.589743,4128.076923,4138.076923,4141.153846,4096.410256,4134.230769,4124.615384,4139.230769,30,13,,,,,,,,,,,,,,,,,
127,16,4129.487179,4131.923077,4130.769231,4125.128205,4132.307692,4130,4154.74359,4128.461538,4141.666666,4136.794872,4105.897436,4137.948718,4130.51282,4141.410256,54,0,,,,,,,,,,,,,,,,,
0,16,4125.51282,4127.820513,4127.179487,4124.743589,4132.051282,4127.948718,4153.205128,4129.871795,4139.358974,4128.589743,4102.307692,4132.692307,4126.666666,4138.205128,213,11,,,,,,,,,,,,,,,,,
1,16,4123.076923,4120.641025,4126.153846,4121.538461,4129.615384,4124.230769,4145.128205,4123.461538,4123.846154,4117.692307,4089.871795,4124.615384,4115.51282,4134.871795,243,12,,,,,,,,,,,,,,,,,
2,16,4123.461538,4122.307692,4123.333333,4121.923077,4130.897436,4123.076923,4142.820513,4122.051282,4121.538461,4118.974359,4093.333333,4126.666666,4119.743589,4136.923077,236,10,,,,,,,,,,,,,,,,,
3,16,4129.102564,4122.051282,4128.717948,4122.820513,4128.846154,4124.102564,4142.435897,4124.871795,4125.51282,4122.179487,4096.666666,4129.871795,4123.974359,4138.717949,63,12,,,,,,,,,,,,,,,,,
4,16,4126.923077,4121.923077,4127.307692,4122.564102,4128.846154,4130.128205,4140.25641,4122.564102,4130.769231,4128.717948,4096.666666,4129.743589,4121.794872,4138.974359,254,13,,,,,,,,,,,,,,,,,
5,16,4124.102564,4122.692307,4126.025641,4121.666666,4126.282051,4133.205128,4140.128205,4123.461538,4135.384615,4133.076923,4097.179487,4129.615384,4120.128205,4137.692307,234,8,,,,,,,,,,,,,,,,,
6,16,4124.358974,4117.307692,4123.205128,4119.102564,4116.666666,4130.25641,4139.74359,4128.076923,4136.282051,4122.179487,4094.358974,4123.846154,4117.307692,4136.666666,150,12,,,,,,,,,,,,,,,,,
7,16,4123.205128,4118.589743,4117.692307,4120.641025,4121.794872,4128.846154,4137.435897,4127.435897,4143.076923,4126.538461,4098.974359,4122.948718,4117.179487,4138.461538,60,5,,,,,,,,,,,,,,,,,
8,16,4131.282051,4127.692307,4129.615384,4126.538461,4133.846154,4132.692307,4135.384615,4130.25641,4151.282051,4132.307692,4104.871795,4130.384615,4120.51282,4139.487179,130,12,,,,,,,,,,,,,,,,,
9,16,4130.897436,4130.25641,4128.589743,4127.179487,4136.666666,4135.25641,4134.871795,4136.410256,4156.153846,4121.282051,4104.358974,4133.846154,4128.205128,4137.307692,134,13,,,,,,,,,,,,,,,,,
10,16,4123.846154,4124.743589,4122.435897,4122.435897,4129.871795,4132.435897,4131.794872,4132.435897,4158.076923,4127.820513,4103.846154,4133.974359,4129.615384,4139.102564,28,13,,,,,,,,,,,,,,,,,
11,16,4122.948718,4118.333333,4123.846154,4121.410256,4123.205128,4131.538461,4128.589743,4124.615384,4161.410256,4143.333333,4100.897436,4129.487179,4120.51282,4138.717949,16,13,,,,,,,,,,,,,,,,,
12,16,4116.538461,4116.666666,4110.769231,4119.102564,4124.102564,4132.948718,4128.333333,4123.717948,4160.128205,4129.743589,4088.205128,4118.974359,4110.384615,4128.846154,3,13,,,,,,,,,,,,,,,,,
13,16,4116.153846,4117.307692,4111.153846,4114.358974,4123.717948,4130.641025,4120.25641,4123.589743,4148.461538,4100.76923,4074.102564,4111.794872,4101.282051,4121.282051,174,12,,,,,,,,,,,,,,,,,
14,16,4117.179487,4119.230769,4119.358974,4116.410256,4126.794872,4126.025641,4111.282051,4121.153846,4150.128205,4103.846154,4083.205128,4118.461538,4104.358974,4122.820513,28,13,,,,,,,,,,,,,,,,,
15,16,4119.102564,4120.51282,4122.307692,4122.692307,4129.102564,4126.282051,4115.25641,4122.564102,4163.076923,4123.461538,4100.76923,4126.282051,4117.179487,4130.25641,16,13,,,,,,,,,,,,,,,,,
16,16,4128.461538,4121.794872,4128.846154,4125.384615,4124.230769,4126.410256,4117.435897,4125.769231,4165.25641,4121.282051,4098.461538,4124.487179,4121.282051,4137.435897,0,0,,,,,,,,,,,,,,,,,
17,16,4127.692307,4126.538461,4126.153846,4125.25641,4124.615384,4123.717948,4115,4127.692307,4167.692307,4113.205128,4095,4124.230769,4120.897436,4138.846154,0,0,,,,,,,,,,,,,,,,,
18,16,4128.333333,4129.358974,4128.717948,4126.666666,4121.410256,4125.384615,4114.743589,4126.025641,4173.974359,4112.948718,4102.435897,4130.128205,4123.461538,4141.410256,0,0,,,,,,,,,,,,,,,,,
19,16,4131.410256,4128.461538,4132.051282,4127.564102,4116.410256,4125.769231,4111.666666,4122.179487,4176.282051,4127.179487,4111.538461,4137.692307,4126.666666,4144.102564,0,0,,,,,,,,,,,,,,,,,
20,16,4128.846154,4129.358974,4131.794872,4128.333333,4121.282051,4126.410256,4111.025641,4125.897436,4179.487179,4144.615384,4115.25641,4141.794872,4128.717948,4144.230769,0,0,,,,,,,,,,,,,,,,,
21,16,4130.769231,4127.307692,4135.897436,4129.871795,4120.51282,4126.923077,4112.948718,4128.974359,4178.076923,4140.769231,4111.153846,4136.025641,4124.743589,4145,0,0,,,,,,,,,,,,,,,,,
22,16,4127.051282,4125.897436,4130.641025,4127.564102,4116.538461,4123.205128,4109.871795,4125.128205,4172.179487,4121.666666,4109.871795,4129.358974,4119.871795,4142.051282,0,0,,,,,,,,,,,,,,,,,
23,16,4125.897436,4124.358974,4135,4127.692307,4116.794872,4121.282051,4097.435897,4121.923077,4167.051282,4107.948718,4113.846154,4136.025641,4118.461538,4136.025641,0,0,,,,,,,,,,,,,,,,,
24,16,4128.461538,4125.897436,4142.307692,4134.615384,4116.410256,4122.051282,4094.230769,4121.794872,4166.153846,4112.692307,4123.461538,4148.717949,4121.153846,4137.564102,0,0,,,,,,,,,,,,,,,,,
25,16,4129.871795,4133.461538,4144.615384,4144.487179,4115.51282,4122.179487,4100.51282,4123.717948,4170.769231,4125.769231,4138.076923,4157.820513,4128.846154,4144.102564,0,0,,,,,,,,,,,,,,,,,
26,16,4132.692307,4136.794872,4151.794872,4152.051282,4114.487179,4121.794872,4094.358974,4126.025641,4171.666667,4127.820513,4144.487179,4162.692307,4133.846154,4147.051282,0,0,,,,,,,,,,,,,,,,,
27,16,4130.25641,4141.666666,4152.435897,4155.384615,4121.794872,4123.333333,4090.641025,4127.435897,4173.205128,4121.282051,4153.461538,4171.538461,4141.025641,4152.179487,0,0,,,,,,,,,,,,,,,,,
28,16,4134.871795,4144.230769,4156.153846,4152.179487,4126.538461,4126.794872,4097.307692,4128.076923,4172.692308,4111.666666,4158.589743,4175.769231,4141.538461,4152.564102,0,0,,,,,,,,,,,,,,,,,
29,16,4133.589743,4133.333333,4148.717949,4141.538461,4119.871795,4126.923077,4092.179487,4126.282051,4165.25641,4110.384615,4146.282051,4163.589743,4129.102564,4141.538461,0,0,,,,,,,,,,,,,,,,,
30,16,4122.948718,4125.128205,4132.948718,4134.358974,4112.820513,4123.974359,4082.564102,4122.948718,4162.051282,4117.435897,4136.282051,4150.641025,4122.692307,4136.410256,0,0,,,,,,,,,,,,,,,,,
31,16,4128.846154,4129.358974,4140.641025,4133.846154,4113.974359,4129.102564,4091.538461,4124.871795,4164.102564,4112.692307,4132.307692,4148.974359,4124.743589,4144.358974,0,0,,,,,,,,,,,,,,,,,
32,16,4135.51282,4134.487179,4145,4135.897436,4125,4133.846154,4103.589743,4130.641025,4174.102564,4116.666666,4130.51282,4155.384615,4129.102564,4151.538461,0,0,,,,,,,,,,,,,,,,,
33,16,4135.25641,4133.461538,4142.692307,4136.538461,4126.282051,4128.205128,4096.025641,4128.333333,4174.74359,4127.820513,4131.282051,4155.769231,4127.564102,4146.153846,0,0,,,,,,,,,,,,,,,,,
34,16,4133.461538,4129.743589,4138.589743,4133.461538,4120.769231,4122.564102,4088.461538,4122.820513,4161.923077,4117.051282,4131.153846,4145,4123.589743,4138.461538,0,0,,,,,,,,,,,,,,,,,
35,16,4125.384615,4124.358974,4129.615384,4126.538461,4122.179487,4123.846154,4090.128205,4126.025641,4160.384615,4113.205128,4129.102564,4133.846154,4121.794872,4139.615384,0,0,,,,,,,,,,,,,,,,,
36,16,4124.102564,4119.358974,4131.025641,4123.076923,4118.461538,4126.025641,4085.128205,4127.564102,4160.51282,4105.897436,4121.025641,4126.410256,4114.358974,4136.666666,0,0,,,,,,,,,,,,,,,,,
37,16,4118.846154,4116.538461,4121.538461,4122.179487,4113.846154,4124.102564,4080.128205,4122.051282,4151.538461,4084.230769,4115.897436,4117.948718,4107.435897,4124.230769,0,0,,,,,,,,,,,,,,,,,
38,16,4109.743589,4114.487179,4111.153846,4113.974359,4111.794872,4123.333333,4080.76923,4121.538461,4144.102564,4086.666666,4110.51282,4107.307692,4100.25641,4117.179487,0,0,,,,,,,,,,,,,,,,,
39,16,4110.769231,4110.897436,4113.846154,4108.846154,4109.871795,4124.743589,4079.230769,4123.846154,4145.641025,4104.871795,4103.205128,4103.717948,4097.307692,4120.25641,0,0,,,,,,,,,,,,,,,,,
40,16,4113.589743,4111.025641,4112.948718,4114.871795,4113.076923,4125.897436,4081.153846,4123.974359,4153.717949,4108.205128,4102.820513,4108.076923,4106.025641,4124.615384,0,0,,,,,,,,,,,,,,,,,
41,16,4119.871795,4112.820513,4119.743589,4122.179487,4110.25641,4125.641025,4082.692307,4125.641025,4154.615384,4100.384615,4105.769231,4112.435897,4112.820513,4126.025641,0,0,,,,,,,,,,,,,,,,,
42,16,4118.076923,4113.974359,4117.307692,4120.384615,4107.948718,4125.25641,4081.923077,4126.794872,4155,4106.666666,4110.128205,4112.692307,4113.333333,4124.871795,0,0,,,,,,,,,,,,,,,,,
43,16,4112.948718,4112.051282,4111.025641,4111.923077,4109.871795,4125.128205,4082.435897,4124.230769,4154.102564,4109.102564,4110.128205,4108.205128,4108.717948,4122.051282,0,0,,,,,,,,,,,,,,,,,
44,16,4116.282051,4108.974359,4116.025641,4112.435897,4104.615384,4124.230769,4077.692307,4123.076923,4146.282051,4095.128205,4103.846154,4104.615384,4102.051282,4121.666666,0,0,,,,,,,,,,,,,,,,,
45,16,4116.025641,4113.589743,4115.641025,4119.230769,4103.205128,4125,4075.897436,4124.743589,4147.820513,4095,4102.948718,4108.205128,4103.205128,4123.846154,0,0,,,,,,,,,,,,,,,,,
46,16,4118.717948,4115.384615,4119.102564,4120.128205,4105,4124.358974,4078.717948,4124.487179,4150.128205,4099.487179,4104.871795,4112.435897,4105.384615,4124.871795,0,0,,,,,,,,,,,,,,,,,
47,16,4114.743589,4112.820513,4115.128205,4116.153846,4108.717948,4123.846154,4078.717948,4122.820513,4143.974359,4101.923077,4105,4111.538461,4103.974359,4121.666666,0,0,,,,,,,,,,,,,,,,,
48,16,4108.589743,4113.846154,4110.384615,4115.25641,4111.410256,4123.076923,4077.948718,4124.358974,4139.102564,4102.307692,4099.871795,4108.076923,4100,4117.820513,0,0,,,,,,,,,,,,,,,,,
49,16,4112.051282,4111.794872,4111.794872,4112.692307,4103.846154,4122.564102,4077.564102,4126.923077,4137.564102,4096.666666,4094.230769,4103.717948,4095.128205,4117.179487,0,0,,,,,,,,,,,,,,,,,
50,16,4114.487179,4111.538461,4108.205128,4107.692307,4103.846154,4129.615384,4083.589743,4129.102564,4143.333333,4097.435897,4101.153846,4107.307692,4102.692307,4120.128205,0,0,,,,,,,,,,,,,,,,,
51,16,4120.384615,4116.538461,4119.102564,4113.717948,4110.384615,4136.025641,4090.25641,4133.076923,4148.974359,4102.692307,4112.179487,4115.769231,4114.102564,4126.153846,0,0,,,,,,,,,,,,,,,,,
52,16,4117.948718,4118.076923,4117.820513,4118.333333,4115.769231,4131.153846,4091.538461,4134.615384,4150.25641,4107.692307,4112.564102,4112.948718,4116.025641,4125.128205,0,0,,,,,,,,,,,,,,,,,
53,16,4114.230769,4114.358974,4107.435897,4110.897436,4119.230769,4123.333333,4088.076923,4129.358974,4146.410256,4112.051282,4106.666666,4108.205128,4112.564102,4122.692307,0,0,,,,,,,,,,,,,,,,,
54,16,4120.128205,4112.179487,4116.923077,4111.794872,4115,4123.333333,4080.128205,4125,4141.666666,4107.435897,4106.666666,4115.25641,4112.820513,4130.897436,0,0,,,,,,,,,,,,,,,,,
55,16,4118.205128,4114.230769,4119.230769,4119.358974,4111.282051,4124.871795,4077.692307,4126.025641,4142.692307,4102.564102,4116.153846,4123.589743,4119.358974,4135,0,0,,,,,,,,,,,,,,,,,
56,16,4118.717948,4115.25641,4117.820513,4116.794872,4110.128205,4124.615384,4079.230769,4126.923077,4139.615384,4109.615384,4115.641025,4121.666666,4118.333333,4132.051282,0,0,,,,,,,,,,,,,,,,,
57,16,4117.820513,4115.25641,4114.615384,4108.076923,4111.282051,4124.102564,4081.666666,4123.846154,4135.641025,4116.153846,4107.820513,4113.076923,4115,4129.743589,0,0,,,,,,,,,,,,,,,,,
58,16,4113.846154,4116.153846,4112.564102,4107.435897,4111.666666,4122.564102,4081.538461,4123.333333,4136.666666,4107.948718,4109.743589,4110.51282,4116.025641,4127.435897,0,0,,,,,,,,,,,,,,,,,
59,16,4122.179487,4116.282051,4122.692307,4110.51282,4106.410256,4122.564102,4080.76923,4129.230769,4135.641025,4105.641025,4111.666666,4115.384615,4113.974359,4127.564102,0,0,,,,,,,,,,,,,,,,,
60,16,4127.307692,4120.769231,4125,4113.974359,4109.615384,4121.923077,4085.128205,4132.051282,4137.435897,4120.51282,4117.051282,4120.384615,4119.487179,4137.692307,0,0,,,,,,,,,,,,,,,,,
61,16,4125.641025,4120.51282,4124.743589,4114.871795,4108.461538,4120.769231,4084.743589,4124.358974,4132.179487,4115.128205,4117.051282,4119.230769,4119.615384,4142.051282,0,0,,,,,,,,,,,,,,,,,
62,16,4122.179487,4113.205128,4116.923077,4107.564102,4098.333333,4120.384615,4082.692307,4123.589743,4122.564102,4097.307692,4102.179487,4111.666666,4106.410256,4130.769231,0,0,,,,,,,,,,,,,,,,,
63,16,4119.871795,4113.589743,4110.384615,4105.641025,4101.025641,4121.666666,4085.384615,4135.51282,4125.128205,4101.923077,4099.743589,4112.435897,4108.974359,4129.615384,0,0,,,,,,,,,,,,,,,,,
64,16,4124.615384,4115.25641,4119.230769,4108.846154,4105,4124.102564,4085.641025,4138.974359,4127.051282,4102.179487,4106.282051,4114.358974,4117.692307,4137.820513,214,11,,,,,,,,,,,,,,,,,
65,16,4121.410256,4113.846154,4114.230769,4107.435897,4102.179487,4123.974359,4085.128205,4128.076923,4124.487179,4098.333333,4106.794872,4111.666666,4116.282051,4135.769231,243,12,,,,,,,,,,,,,,,,,
66,16,4116.025641,4114.358974,4111.666666,4105.641025,4101.282051,4121.923077,4088.461538,4122.564102,4121.410256,4099.358974,4105.51282,4111.538461,4115.769231,4129.743589,242,10,,,,,,,,,,,,,,,,,
67,16,4115,4111.282051,4113.333333,4105.128205,4100.76923,4121.025641,4088.076923,4125.25641,4118.205128,4098.333333,4106.538461,4113.589743,4116.025641,4128.333333,63,12,,,,,,,,,,,,,,,,,
68,16,4110.641025,4105.897436,4105.641025,4103.461538,4099.615384,4120.897436,4081.666666,4125.128205,4117.179487,4102.692307,4105.25641,4109.487179,4110.769231,4124.743589,4,14,,,,,,,,,,,,,,,,,
69,16,4116.025641,4108.589743,4112.435897,4105.641025,4099.871795,4122.307692,4079.615384,4122.564102,4113.076923,4103.076923,4099.615384,4103.589743,4106.282051,4120.641025,0,8,,,,,,,,,,,,,,,,,
70,16,4120.128205,4118.333333,4117.948718,4112.948718,4105,4123.717948,4087.692307,4125,4113.974359,4100.51282,4104.230769,4110.128205,4113.846154,4127.564102,151,12,,,,,,,,,,,,,,,,,
71,16,4117.820513,4116.666666,4117.435897,4113.205128,4102.820513,4122.948718,4087.179487,4127.692307,4117.051282,4097.820512,4108.333333,4113.205128,4117.051282,4131.025641,57,5,,,,,,,,,,,,,,,,,
72,16,4113.846154,4109.230769,4115.25641,4109.358974,4099.871795,4122.948718,4079.102564,4125.25641,4113.589743,4098.461538,4103.717948,4105.641025,4108.333333,4123.205128,137,12,,,,,,,,,,,,,,,,,
73,16,4107.051282,4105.769231,4106.794872,4106.282051,4100,4122.179487,4083.846154,4123.205128,4109.102564,4090.51282,4098.076923,4102.179487,4101.666666,4117.692307,147,13,,,,,,,,,,,,,,,,,
74,16,4113.461538,4102.435897,4110,4102.564102,4092.179487,4120.51282,4085.641025,4122.435897,4105,4067.692307,4094.102564,4102.692307,4101.538461,4120.128205,25,13,,,,,,,,,,,,,,,,,
75,16,4118.974359,4108.589743,4113.205128,4104.102564,4093.974359,4121.666666,4080.76923,4122.051282,4110.769231,4078.717948,4106.410256,4109.358974,4112.307692,4126.538461,17,13,,,,,,,,,,,,,,,,,
76,16,4118.589743,4112.948718,4116.282051,4108.717948,4096.153846,4117.948718,4080,4122.948718,4114.358974,4107.051282,4113.333333,4113.717948,4115,4127.948718,3,13,,,,,,,,,,,,,,,,,
77,16,4117.179487,4105.641025,4115.25641,4108.333333,4090.384615,4112.435897,4077.179487,4121.923077,4103.461538,4101.538461,4099.743589,4107.307692,4103.846154,4122.051282,174,12,,,,,,,,,,,,,,,,,
78,16,4110.51282,4106.410256,4104.871795,4106.025641,4097.307692,4114.358974,4073.076923,4120.384615,4101.538461,4090.76923,4096.538461,4102.692307,4104.102564,4119.615384,25,13,,,,,,,,,,,,,,,,,
79,16,4111.153846,4109.743589,4109.743589,4106.282051,4097.051282,4119.358974,4072.307692,4123.461538,4105.128205,4090.897436,4098.333333,4104.871795,4106.923077,4123.333333,17,13,,,,,,,,,,,,,,,,,
80,16,4110.769231,4107.435897,4109.743589,4105.769231,4093.076923,4121.282051,4077.307692,4125.128205,4106.410256,4090.51282,4096.282051,4105.25641,4105.384615,4124.102564,3,13,,,,,,,,,,,,,,,,,
81,16,4111.538461,4111.538461,4108.717948,4106.410256,4103.589743,4122.692307,4081.538461,4121.923077,4107.435897,4093.717948,4102.692307,4107.307692,4110.641025,4123.974359,174,12,,,,,,,,,,,,,,,,,
82,16,4113.846154,4115.384615,4113.076923,4108.589743,4104.358974,4121.923077,4078.589743,4122.179487,4103.589743,4087.948718,4107.179487,4106.923077,4110.51282,4122.051282,25,13,,,,,,,,,,,,,,,,,
83,16,4105.25641,4108.076923,4103.974359,4106.538461,4096.282051,4118.333333,4077.051282,4124.102564,4097.435897,4072.307692,4097.435897,4097.435897,4098.846154,4112.692307,17,13,,,,,,,,,,,,,,,,,
84,16,4106.153846,4103.461538,4107.948718,4105,4097.564102,4122.307692,4077.948718,4122.179487,4093.846154,4074.615384,4091.153846,4096.794871,4091.282051,4110.51282,3,13,,,,,,,,,,,,,,,,,
85,16,4113.076923,4109.615384,4113.076923,4107.820513,4102.820513,4122.564102,4075.897436,4121.282051,4099.743589,4091.666666,4101.666666,4107.692307,4100.128205,4120.51282,174,12,,,,,,,,,,,,,,,,,
86,16,4113.846154,4113.205128,4111.025641,4109.358974,4099.743589,4116.282051,4071.282051,4123.461538,4104.230769,4097.051282,4104.743589,4110.384615,4107.307692,4124.871795,25,13,,,,,,,,,,,,,,,,,
87,16,4112.564102,4110.384615,4111.794872,4107.051282,4094.615384,4117.435897,4069.230769,4122.692307,4097.435897,4087.307692,4096.794871,4105.897436,4101.153846,4121.025641,17,13,,,,,,,,,,,,,,,,,
88,16,4108.333333,4112.051282,4107.692307,4108.076923,4095.897436,4121.410256,4071.025641,4116.666666,4096.153846,4085,4100.641025,4109.230769,4099.102564,4122.179487,3,13,,,,,,,,,,,,,,,,,
89,16,4109.743589,4111.410256,4115.641025,4112.692307,4092.435897,4122.051282,4067.307692,4121.025641,4094.358974,4084.615384,4103.205128,4112.820513,4098.846154,4126.153846,174,12,,,,,,,,,,,,,,,,,
90,16,4104.230769,4108.846154,4113.717948,4111.282051,4095.897436,4119.358974,4062.820512,4119.871795,4089.102564,4073.461538,4093.589743,4103.589743,4093.461538,4117.307692,25,13,,,,,,,,,,,,,,,,,
91,16,4097.307692,4113.974359,4101.666666,4107.435897,4109.743589,4114.487179,4066.282051,4104.102564,4091.666666,4070.384615,4088.717948,4094.358974,4090,4103.717948,17,13,,,,,,,,,,,,,,,,,
92,16,4107.820513,4114.615384,4110,4110.384615,4103.205128,4117.820513,4069.102564,4118.846154,4087.820512,4072.948718,4088.076923,4098.589743,4091.025641,4111.153846,3,13,,,,,,,,,,,,,,,,,
93,16,4112.820513,4111.923077,4113.717948,4114.615384,4096.410256,4122.307692,4066.794871,4130.51282,4084.615384,4079.358974,4090.641025,4109.615384,4098.717948,4124.487179,174,12,,,,,,,,,,,,,,,,,
94,16,4113.205128,4113.205128,4114.743589,4112.435897,4105.897436,4116.025641,4063.589743,4113.461538,4086.410256,4083.076923,4090.897436,4111.410256,4101.410256,4118.974359,25,13,,,,,,,,,,,,,,,,,
95,16,4113.461538,4111.923077,4114.230769,4109.487179,4101.794871,4114.230769,4065.25641,4117.948718,4085.128205,4083.717948,4083.333333,4103.974359,4096.025641,4114.487179,17,13,,,,,,,,,,,,,,,,,
96,16,4111.153846,4111.666666,4109.871795,4111.538461,4096.923077,4122.564102,4070.128205,4126.538461,4089.871795,4091.282051,4084.358974,4108.076923,4099.230769,4120.384615,3,13,,,,,,,,,,,,,,,,,
97,16,4116.923077,4111.153846,4115.51282,4111.153846,4102.051282,4123.333333,4068.589743,4122.820513,4093.717948,4086.538461,4091.538461,4115.384615,4107.051282,4123.717948,174,12,,,,,,,,,,,,,,,,,
98,16,4117.564102,4111.923077,4115.769231,4108.717948,4106.025641,4120.51282,4066.923077,4124.358974,4097.948718,4088.333333,4098.333333,4114.743589,4115.769231,4124.871795,25,13,,,,,,,,,,,,,,,,,
99,16,4116.794872,4114.871795,4119.102564,4111.794872,4107.948718,4123.461538,4071.282051,4128.333333,4101.410256,4105.384615,4101.282051,4117.179487,4119.615384,4126.666666,17,13,,,,,,,,,,,,,,,,,
100,16,4116.923077,4114.230769,4118.717948,4116.153846,4109.743589,4126.025641,4075.384615,4129.102564,4101.923077,4112.564102,4095.51282,4118.846154,4115.25641,4126.025641,3,13,,,,,,,,,,,,,,,,,
101,16,4112.179487,4111.025641,4108.974359,4112.179487,4108.076923,4122.435897,4070.641025,4124.230769,4104.487179,4102.820513,4089.615384,4112.051282,4111.923077,4123.846154,174,12,,,,,,,,,,,,,,,,,
102,16,4113.846154,4108.461538,4112.179487,4107.051282,4101.794871,4118.717948,4060.76923,4122.435897,4099.871795,4091.538461,4086.923077,4106.410256,4109.743589,4123.846154,25,13,,,,,,,,,,,,,,,,,
103,16,4114.487179,4112.179487,4111.794872,4113.205128,4108.589743,4119.871795,4064.230769,4124.358974,4095.51282,4098.974359,4091.923077,4110.25641,4111.794872,4123.974359,17,13,,,,,,,,,,,,,,,,,
104,16,4115,4115.897436,4114.358974,4117.820513,4117.692307,4123.461538,4069.743589,4126.025641,4095.128205,4099.743589,4093.589743,4116.794872,4113.461538,4124.102564,3,13,,,,,,,,,,,,,,,,,
105,16,4115.51282,4113.846154,4116.923077,4112.692307,4115.897436,4124.743589,4062.820512,4120.51282,4093.461538,4089.487179,4090.897436,4114.871795,4109.871795,4122.564102,174,12,,,,,,,,,,,,,,,,,
106,16,4111.794872,4114.230769,4108.461538,4107.179487,4115,4119.487179,4055,4114.743589,4092.051282,4095.128205,4093.846154,4108.333333,4107.820513,4119.487179,25,13,,,,,,,,,,,,,,,,,
107,16,4120.384615,4116.410256,4114.358974,4110.769231,4112.435897,4118.846154,4054.743589,4122.179487,4091.025641,4102.948718,4093.333333,4111.410256,4107.564102,4124.743589,17,13,,,,,,,,,,,,,,,,,
108,16,4125.769231,4115.897436,4118.461538,4114.358974,4113.974359,4122.051282,4060.51282,4125.897436,4096.794871,4100,4093.846154,4120.641025,4113.717948,4133.076923,3,13,,,,,,,,,,,,,,,,,
109,16,4120.128205,4112.948718,4114.871795,4110.769231,4111.410256,4117.435897,4060.641025,4124.871795,4102.948718,4096.923077,4096.538461,4121.282051,4115.128205,4130.384615,174,12,,,,,,,,,,,,,,,,,
110,16,4115.25641,4112.692307,4112.179487,4111.025641,4104.358974,4116.666666,4054.871794,4126.538461,4100.76923,4097.948718,4093.846154,4114.102564,4110.897436,4122.948718,25,13,,,,,,,,,,,,,,,,,
111,16,4110.128205,4113.461538,4109.102564,4112.435897,4108.589743,4117.051282,4053.846153,4122.051282,4096.794871,4091.025641,4091.410256,4111.666666,4115.128205,4122.948718,17,13,,,,,,,,,,,,,,,,,
112,16,4113.461538,4107.948718,4116.153846,4108.333333,4105.641025,4112.435897,4051.794871,4119.230769,4089.743589,4079.615384,4089.487179,4113.717948,4116.153846,4125.641025,3,13,,,,,,,,,,,,,,,,,
113,16,4112.435897,4106.282051,4113.333333,4105.128205,4099.743589,4110.51282,4047.564102,4119.615384,4090.128205,4089.615384,4091.666666,4115,4110.641025,4123.333333,174,12,,,,,,,,,,,,,,,,,
114,16,4111.666666,4112.179487,4115.25641,4109.743589,4102.692307,4112.692307,4042.307692,4117.435897,4097.820512,4108.076923,4096.153846,4118.076923,4110.641025,4123.461538,25,13,,,,,,,,,,,,,,,,,
115,16,4117.307692,4114.743589,4123.974359,4115.25641,4103.717948,4116.410256,4038.461538,4117.692307,4098.205128,4104.615384,4098.205128,4120.128205,4115.128205,4126.153846,17,13,,,,,,,,,,,,,,,,,
116,16,4111.025641,4113.076923,4114.230769,4111.794872,4107.051282,4115.641025,4041.282051,4123.076923,4095.51282,4097.051282,4097.564102,4118.461538,4113.717948,4123.076923,3,13,,,,,,,,,,,,,,,,,
117,16,4110.384615,4109.487179,4113.717948,4107.820513,4102.820513,4110.641025,4039.358974,4124.871795,4092.692307,4090.897436,4094.487179,4115,4108.846154,4121.282051,174,12,,,,,,,,,,,,,,,,,
118,16,4117.179487,4109.871795,4118.717948,4110.25641,4100.384615,4112.051282,4040.51282,4121.282051,4093.076923,4085.128205,4097.051282,4119.871795,4114.487179,4126.282051,25,13,,,,,,,,,,,,,,,,,
119,16,4119.743589,4115.25641,4122.564102,4113.974359,4103.589743,4121.923077,4047.948718,4126.410256,4092.564102,4089.743589,4098.717948,4126.282051,4117.820513,4131.410256,17,13,,,,,,,,,,,,,,,,,
120,16,4116.282051,4112.820513,4121.794872,4111.282051,4101.923077,4121.666666,4041.923077,4118.974359,4092.179487,4094.102564,4092.948718,4117.820513,4112.051282,4124.358974,3,13,,,,,,,,,,,,,,,,,
121,16,4109.871795,4107.051282,4111.923077,4107.692307,4104.230769,4113.974359,4036.794871,4118.333333,4101.538461,4098.974359,4096.666666,4114.230769,4116.538461,4121.282051,174,12,,,,,,,,,,,,,,,,,
122,16,4114.615384,4107.179487,4117.692307,4109.230769,4105.51282,4116.538461,4037.692307,4129.358974,4102.179487,4102.948718,4099.615384,4119.871795,4118.974359,4129.358974,25,13,,,,,,,,,,,,,,,,,
123,16,4112.692307,4110.769231,4116.153846,4109.743589,4106.282051,4117.948718,4031.025641,4118.461538,4096.410256,4106.282051,4093.076923,4116.410256,4109.487179,4125.641025,17,13,,,,,,,,,,,,,,,,,
124,16,4107.179487,4110.384615,4109.358974,4108.717948,4107.820513,4118.846154,4027.051282,4117.820513,4097.435897,4101.666666,4092.948718,4112.307692,4107.564102,4120.128205,3,13,,,,,,,,,,,,,,,,,
125,16,4115.769231,4110,4116.923077,4110.897436,4106.153846,4124.102564,4036.282051,4124.871795,4101.538461,4092.692307,4095.897436,4115.384615,4113.846154,4125.384615,174,12,,,,,,,,,,,,,,,,,
126,16,4115,4114.230769,4111.923077,4111.153846,4109.487179,4120.769231,4039.358974,4122.948718,4103.589743,4098.205128,4093.205128,4115,4115.51282,4126.923077,25,13,,,,,,,,,,,,,,,,,
127,16,4109.487179,4111.410256,4108.974359,4108.589743,4113.461538,4116.282051,4028.461538,4122.692307,4096.538461,4100.25641,4087.307692,4108.461538,4107.435897,4122.692307,54,0,,,,,,,,,,,,,,,,,
0,16,4110.641025,4109.743589,4113.076923,4108.461538,4116.666666,4118.846154,4027.051282,4120.641025,4099.615384,4095.641025,4088.333333,4108.205128,4104.743589,4119.871795,217,11,,,,,,,,,,,,,,,,,
1,16,4111.282051,4112.948718,4114.615384,4109.743589,4113.974359,4117.692307,4028.205128,4123.076923,4110.384615,4094.358974,4092.948718,4112.435897,4114.358974,4122.435897,243,12,,,,,,,,,,,,,,,,,
2,16,4111.410256,4111.153846,4117.564102,4112.564102,4108.974359,4111.923077,4018.717948,4122.948718,4106.666666,4098.076923,4094.487179,4115.897436,4118.974359,4124.615384,243,10,,,,,,,,,,,,,,,,,
3,16,4111.282051,4112.435897,4114.358974,4114.358974,4110.641025,4115.384615,4020,4122.692307,4108.974359,4108.076923,4099.615384,4122.051282,4121.538461,4126.666666,63,12,,,,,,,,,,,,,,,,,
4,16,4118.076923,4111.153846,4118.717948,4110.641025,4106.666666,4121.282051,4026.538461,4125.769231,4114.615384,4111.025641,4100,4123.717948,4122.179487,4131.282051,254,13,,,,,,,,,,,,,,,,,
5,16,4119.102564,4109.102564,4120.897436,4108.717948,4108.076923,4116.153846,4021.410256,4123.846154,4108.333333,4108.846154,4097.564102,4121.923077,4118.205128,4134.743589,162,8,,,,,,,,,,,,,,,,,
6,16,4113.846154,4112.948718,4116.025641,4110.769231,4116.923077,4112.820513,4016.410256,4120.25641,4098.846154,4102.307692,4093.717948,4118.076923,4114.102564,4131.410256,119,13,,,,,,,,,,,,,,,,,
7,16,4116.153846,4113.076923,4119.102564,4110.51282,4108.461538,4115.769231,4010.641025,4121.025641,4093.717948,4091.923077,4084.230769,4110.641025,4108.076923,4125.128205,56,5,,,,,,,,,,,,,,,,,
8,16,4113.333333,4110.25641,4114.102564,4108.076923,4105.897436,4111.410256,4001.153846,4122.179487,4094.743589,4092.307692,4084.358974,4108.717948,4106.923077,4123.205128,88,13,,,,,,,,,,,,,,,,,
9,16,4114.871795,4108.205128,4113.205128,4106.923077,4112.820513,4106.923077,3996.02564,4121.923077,4092.051282,4081.153846,4086.794871,4108.205128,4107.179487,4124.230769,142,13,,,,,,,,,,,,,,,,,
10,16,4117.435897,4107.307692,4113.846154,4108.589743,4108.076923,4113.974359,3999.743589,4122.435897,4091.923077,4068.846153,4085,4105.384615,4106.923077,4125.641025,30,13,,,,,,,,,,,,,,,,,
11,16,4111.794872,4106.923077,4107.435897,4108.589743,4105.769231,4120.897436,4002.564102,4121.410256,4098.846154,4095.128205,4085.76923,4106.410256,4110.25641,4125.25641,19,13,,,,,,,,,,,,,,,,,
12,16,4113.974359,4107.307692,4112.435897,4105.897436,4111.538461,4117.051282,3995.76923,4121.410256,4096.794871,4113.205128,4081.923077,4105,4106.538461,4119.102564,4,13,,,,,,,,,,,,,,,,,
13,16,4114.487179,4111.153846,4114.230769,4109.871795,4119.487179,4115,3994.358974,4123.589743,4095.25641,4099.358974,4082.179487,4105.897436,4107.179487,4118.205128,174,12,,,,,,,,,,,,,,,,,
14,16,4118.717948,4115.769231,4120.128205,4120.25641,4122.820513,4123.589743,4001.153846,4124.102564,4104.615384,4098.974359,4092.948718,4118.076923,4118.333333,4129.871795,30,13,,,,,,,,,,,,,,,,,
15,16,4128.846154,4121.538461,4130,4124.743589,4125.51282,4126.282051,4005.641025,4123.717948,4113.974359,4110,4101.538461,4126.282051,4127.564102,4139.102564,19,13,,,,,,,,,,,,,,,,,
16,16,4126.410256,4126.410256,4124.102564,4122.307692,4132.948718,4121.025641,4005.128205,4126.153846,4118.846154,4109.743589,4105.897436,4125.128205,4132.820513,4140.25641,0,0,,,,,,,,,,,,,,,,,
17,16,4122.820513,4121.666666,4121.282051,4121.025641,4128.076923,4122.820513,4002.307692,4128.589743,4117.692307,4107.820513,4102.692307,4123.076923,4127.692307,4139.871795,0,0,,,,,,,,,,,,,,,,,
18,16,4118.333333,4114.615384,4114.358974,4117.692307,4118.205128,4123.974359,3996.538461,4125.384615,4115.25641,4108.205128,4098.974359,4117.564102,4120,4133.333333,0,0,,,,,,,,,,,,,,,,,
19,16,4117.692307,4117.948718,4112.051282,4111.282051,4118.589743,4116.923077,3987.051282,4122.692307,4111.666666,4100.25641,4098.461538,4112.948718,4118.846154,4123.846154,0,0,,,,,,,,,,,,,,,,,
20,16,4120.897436,4118.333333,4115,4108.461538,4122.307692,4116.538461,3986.923076,4123.974359,4104.487179,4096.538461,4088.717948,4111.923077,4115.25641,4121.923077,0,0,,,,,,,,,,,,,,,,,
21,16,4116.410256,4113.846154,4108.076923,4108.205128,4124.615384,4126.153846,3996.282051,4123.974359,4104.358974,4101.794871,4079.230769,4109.743589,4110.641025,4125.25641,0,0,,,,,,,,,,,,,,,,,
22,16,4116.410256,4112.692307,4111.538461,4105.897436,4123.205128,4128.333333,3995.128205,4123.333333,4104.871795,4087.307692,4076.025641,4105.128205,4107.692307,4123.333333,0,0,,,,,,,,,,,,,,,,,
23,16,4116.025641,4110.641025,4110.384615,4104.743589,4119.743589,4121.410256,3985.76923,4124.615384,4102.307692,4080.51282,4074.487179,4102.820513,4107.820513,4120.641025,0,0,,,,,,,,,,,,,,,,,
24,16,4117.435897,4112.051282,4110.769231,4109.743589,4113.974359,4118.974359,3978.846153,4124.487179,4104.743589,4099.743589,4080.76923,4109.358974,4109.487179,4123.076923,0,0,,,,,,,,,,,,,,,,,
25,16,4123.333333,4116.153846,4120.25641,4112.820513,4111.666666,4117.307692,3972.948717,4121.794872,4106.153846,4095.897436,4089.358974,4114.743589,4111.666666,4124.615384,0,0,,,,,,,,,,,,,,,,,
26,16,4116.538461,4113.076923,4113.974359,4107.692307,4111.666666,4113.974359,3974.102564,4123.461538,4106.153846,4085.384615,4092.948718,4111.794872,4116.410256,4122.948718,0,0,,,,,,,,,,,,,,,,,
27,16,4114.871795,4106.282051,4113.076923,4108.717948,4104.487179,4117.179487,3976.410256,4126.538461,4106.153846,4099.358974,4092.692307,4110.641025,4118.846154,4125.25641,0,0,,,,,,,,,,,,,,,,,
28,16,4119.358974,4109.871795,4116.538461,4117.820513,4109.358974,4120.897436,3971.923076,4123.589743,4110.897436,4112.820513,4096.153846,4113.846154,4119.615384,4127.692307,0,0,,,,,,,,,,,,,,,,,
29,16,4117.948718,4116.153846,4115.641025,4120.897436,4122.820513,4122.179487,3967.435897,4122.307692,4114.358974,4109.615384,4096.666666,4112.820513,4119.743589,4123.974359,0,0,,,,,,,,,,,,,,,,,
30,16,4120.128205,4114.102564,4118.589743,4120.384615,4115.641025,4123.205128,3970.897435,4126.025641,4109.743589,4108.461538,4093.974359,4113.076923,4119.871795,4127.051282,0,0,,,,,,,,,,,,,,,,,
31,16,4123.333333,4116.153846,4119.102564,4122.692307,4112.820513,4123.717948,3977.435897,4126.153846,4111.794872,4120.25641,4102.564102,4123.461538,4126.538461,4136.282051,0,0,,,,,,,,,,,,,,,,,
32,16,4126.153846,4119.358974,4125.897436,4121.153846,4123.333333,4122.435897,3972.179487,4122.564102,4112.051282,4112.692307,4103.974359,4125.641025,4128.461538,4133.717948,0,0,,,,,,,,,,,,,,,,,
33,16,4121.410256,4117.051282,4121.282051,4117.948718,4122.179487,4120.384615,3965.897435,4122.435897,4108.846154,4095.51282,4093.717948,4114.487179,4122.948718,4124.615384,0,0,,,,,,,,,,,,,,,,,
34,16,4113.717948,4114.230769,4110.25641,4117.307692,4119.615384,4121.153846,3970.51282,4124.230769,4107.948718,4100.384615,4090,4110.769231,4118.589743,4124.487179,0,0,,,,,,,,,,,,,,,,,
35,16,4114.487179,4113.461538,4116.666666,4118.461538,4120.897436,4124.487179,3974.102564,4122.948718,4101.794871,4104.487179,4091.538461,4111.153846,4113.333333,4123.589743,0,0,,,,,,,,,,,,,,,,,
36,16,4115.128205,4119.230769,4120.384615,4121.923077,4121.538461,4124.743589,3975.51282,4123.333333,4104.230769,4102.564102,4097.051282,4114.358974,4117.820513,4121.282051,0,0,,,,,,,,,,,,,,,,,
37,16,4121.025641,4120.897436,4124.358974,4125.897436,4120.641025,4122.179487,3975.51282,4124.358974,4109.743589,4108.589743,4099.358974,4123.205128,4126.153846,4131.538461,0,0,,,,,,,,,,,,,,,,,
38,16,4122.051282,4116.538461,4122.692307,4122.179487,4119.230769,4121.666666,3970.897435,4122.820513,4106.666666,4112.820513,4100.641025,4125.384615,4127.948718,4137.051282,0,0,,,,,,,,,,,,,,,,,
39,16,4115,4115.769231,4114.871795,4117.435897,4120.769231,4118.333333,3968.974358,4122.179487,4105.641025,4105,4103.589743,4120.384615,4126.538461,4127.948718,0,0,,,,,,,,,,,,,,,,,
40,16,4117.179487,4115.769231,4119.230769,4121.025641,4119.743589,4114.615384,3969.743589,4121.666666,4106.153846,4100.897436,4096.666666,4115.641025,4118.974359,4121.025641,0,0,,,,,,,,,,,,,,,,,
41,16,4116.538461,4115.51282,4116.153846,4121.025641,4117.307692,4117.435897,3968.846153,4122.051282,4108.974359,4102.820513,4095.384615,4114.743589,4118.974359,4124.358974,0,0,,,,,,,,,,,,,,,,,
42,16,4116.794872,4116.282051,4114.487179,4117.435897,4113.333333,4120.897436,3968.717948,4123.076923,4109.615384,4090.128205,4105.384615,4117.692307,4123.205128,4128.974359,0,0,,,,,,,,,,,,,,,,,
43,16,4119.102564,4114.102564,4115.897436,4119.102564,4118.846154,4121.794872,3970.128205,4121.282051,4102.820513,4087.948718,4108.717948,4119.615384,4119.358974,4127.564102,0,0,,,,,,,,,,,,,,,,,
44,16,4116.666666,4112.820513,4113.205128,4115.769231,4123.461538,4120.641025,3969.230769,4120.128205,4097.948718,4103.589743,4107.948718,4119.358974,4116.153846,4125.25641,0,0,,,,,,,,,,,,,,,,,
45,16,4119.230769,4114.230769,4117.692307,4111.410256,4111.282051,4119.615384,3964.871794,4123.461538,4096.923077,4098.076923,4105.384615,4115.51282,4112.435897,4124.871795,0,0,,,,,,,,,,,,,,,,,
46,16,4115.641025,4114.615384,4113.076923,4117.307692,4114.358974,4119.615384,3965.76923,4123.846154,4100.384615,4087.564102,4106.794872,4111.282051,4111.025641,4122.692307,0,0,,,,,,,,,,,,,,,,,
47,16,4115.384615,4114.487179,4114.871795,4124.230769,4122.435897,4121.282051,3968.846153,4121.153846,4103.461538,4094.615384,4113.333333,4112.051282,4118.717948,4122.179487,0,0,,,,,,,,,,,,,,,,,
48,16,4121.794872,4115,4123.846154,4123.205128,4115.51282,4124.487179,3971.794871,4121.794872,4106.666666,4092.051282,4121.923077,4120.641025,4128.846154,4128.205128,0,0,,,,,,,,,,,,,,,,,
49,16,4116.794872,4116.153846,4117.948718,4121.410256,4119.102564,4124.358974,3974.487179,4123.076923,4110.641025,4091.410256,4124.615384,4127.307692,4128.205128,4129.743589,0,0,,,,,,,,,,,,,,,,,
50,16,4116.538461,4112.435897,4116.666666,4122.307692,4121.538461,4119.615384,3974.487179,4122.692307,4103.846154,4102.692307,4114.743589,4119.615384,4115.51282,4123.076923,0,0,,,,,,,,,,,,,,,,,
51,16,4116.410256,4112.307692,4112.564102,4120.641025,4116.410256,4117.692307,3977.051282,4121.794872,4098.846154,4105.897436,4108.333333,4107.692307,4112.051282,4121.025641,0,0,,,,,,,,,,,,,,,,,
52,16,4113.333333,4116.538461,4111.538461,4120,4116.923077,4122.051282,3977.307692,4119.871795,4100.25641,4098.461538,4110.384615,4110.384615,4118.461538,4122.948718,0,0,,,,,,,,,,,,,,,,,
53,16,4116.153846,4115.128205,4116.282051,4121.666666,4116.410256,4124.102564,3976.794871,4120.51282,4100.76923,4098.846154,4115.384615,4118.205128,4122.179487,4124.487179,0,0,,,,,,,,,,,,,,,,,
54,16,4112.820513,4110.51282,4109.102564,4118.461538,4113.846154,4118.205128,3979.871794,4123.076923,4105.897436,4105,4116.153846,4115.384615,4121.410256,4125.897436,0,0,,,,,,,,,,,,,,,,,
55,16,4112.435897,4109.230769,4113.461538,4112.307692,4111.153846,4113.846154,3972.307692,4121.923077,4106.666666,4088.205128,4109.743589,4111.025641,4117.820513,4122.051282,0,0,,,,,,,,,,,,,,,,,
56,16,4117.820513,4117.307692,4118.205128,4114.743589,4114.615384,4116.538461,3965.76923,4120.641025,4104.487179,4082.948718,4112.820513,4120.128205,4123.076923,4122.820513,0,0,,,,,,,,,,,,,,,,,
57,16,4123.974359,4120.51282,4120.25641,4122.692307,4117.692307,4119.230769,3976.153846,4122.948718,4105.769231,4105.51282,4123.717948,4131.410256,4128.076923,4134.230769,0,0,,,,,,,,,,,,,,,,,
58,16,4124.102564,4119.487179,4127.435897,4125,4118.076923,4121.538461,3982.948717,4123.589743,4112.179487,4114.743589,4125.128205,4132.179487,4125.384615,4139.615384,0,0,,,,,,,,,,,,,,,,,
59,16,4116.794872,4125.769231,4125,4125.384615,4122.564102,4122.051282,3978.717948,4122.435897,4120.25641,4109.615384,4125.897436,4130,4131.794872,4135.897436,0,0,,,,,,,,,,,,,,,,,
60,16,4118.205128,4120.769231,4123.974359,4119.615384,4112.692307,4115.897436,3977.051282,4123.717948,4111.025641,4096.666666,4126.025641,4126.025641,4131.666666,4131.666666,0,0,,,,,,,,,,,,,,,,,
61,16,4116.923077,4109.358974,4117.051282,4109.871795,4098.717948,4112.435897,3978.461538,4123.333333,4099.230769,4087.051282,4119.871795,4123.333333,4121.282051,4127.179487,0,0,,,,,,,,,,,,,,,,,
62,16,4115.641025,4114.615384,4117.051282,4113.205128,4105,4116.025641,3974.743589,4119.102564,4099.358974,4089.102564,4119.102564,4127.564102,4119.615384,4127.179487,0,0,,,,,,,,,,,,,,,,,
63,16,4120.769231,4120.25641,4124.358974,4118.333333,4114.615384,4116.538461,3971.923076,4117.820513,4096.794871,4092.179487,4117.564102,4124.358974,4119.102564,4127.692307,0,0,,,,,,,,,,,,,,,,,
64,16,4114.743589,4111.153846,4113.461538,4109.615384,4110.25641,4111.025641,3973.589743,4119.230769,4092.948718,4090.897436,4109.487179,4112.564102,4112.179487,4121.666666,213,11,,,,,,,,,,,,,,,,,
65,16,4115.897436,4108.717948,4113.589743,4112.435897,4103.076923,4112.692307,3970.897435,4120.25641,4096.666666,4092.692307,4106.794872,4113.076923,4111.666666,4125.25641,243,12,,,,,,,,,,,,,,,,,
66,16,4122.051282,4116.666666,4118.589743,4121.923077,4109.230769,4118.076923,3973.589743,4120.769231,4105.128205,4100.641025,4114.487179,4123.461538,4118.333333,4135.25641,238,10,,,,,,,,,,,,,,,,,
67,16,4117.820513,4118.205128,4113.974359,4116.923077,4115,4120.128205,3983.846153,4121.666666,4107.692307,4097.179487,4117.179487,4120.769231,4117.948718,4131.410256,63,12,,,,,,,,,,,,,,,,,
68,16,4119.743589,4114.230769,4117.179487,4115.641025,4109.487179,4121.923077,3982.051282,4121.410256,4103.717948,4088.589743,4112.307692,4115.25641,4116.666666,4123.974359,254,13,,,,,,,,,,,,,,,,,
69,16,4121.923077,4116.153846,4116.666666,4120.641025,4114.615384,4120.51282,3976.282051,4119.743589,4108.205128,4099.487179,4117.948718,4121.923077,4123.461538,4127.051282,224,8,,,,,,,,,,,,,,,,,
70,16,4124.487179,4119.102564,4121.025641,4117.051282,4121.410256,4120.641025,3983.333333,4122.179487,4114.871795,4107.307692,4121.923077,4123.333333,4128.333333,4133.333333,222,12,,,,,,,,,,,,,,,,,
71,16,4129.487179,4118.974359,4124.871795,4117.051282,4114.743589,4122.948718,3991.410256,4125.384615,4118.461538,4103.589743,4120.128205,4121.538461,4132.179487,4136.282051,56,5,,,,,,,,,,,,,,,,,
72,16,4130.769231,4120.51282,4123.205128,4122.692307,4112.179487,4122.307692,3988.333333,4123.846154,4121.538461,4113.974359,4125.128205,4125.384615,4136.153846,4139.74359,187,12,,,,,,,,,,,,,,,,,
73,16,4129.230769,4118.333333,4129.102564,4121.153846,4116.923077,4119.743589,3981.153846,4120.128205,4114.615384,4119.230769,4122.948718,4125,4131.410256,4138.846154,138,13,,,,,,,,,,,,,,,,,
74,16,4119.358974,4114.487179,4124.102564,4118.717948,4121.538461,4117.948718,3981.794871,4119.871795,4105.897436,4098.974359,4116.025641,4121.538461,4125,4131.282051,25,13,,,,,,,,,,,,,,,,,
75,16,4119.615384,4113.974359,4121.538461,4119.230769,4116.282051,4119.487179,3986.02564,4121.282051,4103.205128,4089.102564,4116.025641,4121.538461,4119.743589,4128.461538,19,13,,,,,,,,,,,,,,,,,
76,16,4126.794872,4116.666666,4124.743589,4118.076923,4111.282051,4120.25641,3985.641025,4121.794872,4106.794872,4109.102564,4119.358974,4122.820513,4121.410256,4134.615384,0,13,,,,,,,,,,,,,,,,,
77,16,4124.743589,4118.589743,4124.230769,4120,4116.538461,4119.487179,3985.897435,4122.692307,4112.820513,4115.128205,4121.794872,4124.743589,4130.641025,4139.230769,174,12,,,,,,,,,,,,,,,,,
78,16,4125.641025,4118.461538,4129.487179,4123.846154,4117.307692,4120.769231,3989.871794,4123.461538,4111.282051,4100.25641,4121.794872,4125.641025,4128.461538,4136.923077,25,13,,,,,,,,,,,,,,,,,
79,16,4125.384615,4121.666666,4124.871795,4124.743589,4123.974359,4121.794872,3992.435897,4123.974359,4112.564102,4108.205128,4128.589743,4125.51282,4127.179487,4136.025641,19,13,,,,,,,,,,,,,,,,,
80,16,4125.51282,4121.025641,4126.794872,4124.230769,4124.102564,4121.153846,3990.384615,4124.102564,4113.846154,4118.846154,4132.948718,4131.025641,4132.435897,4137.051282,0,13,,,,,,,,,,,,,,,,,
81,16,4126.153846,4118.205128,4132.564102,4125.769231,4109.487179,4121.794872,3993.589743,4122.564102,4110.25641,4109.615384,4129.743589,4136.025641,4129.615384,4136.410256,174,12,,,,,,,,,,,,,,,,,
82,16,4123.461538,4119.743589,4126.282051,4123.589743,4112.820513,4122.948718,3998.205128,4120.25641,4110.51282,4114.487179,4128.846154,4133.846154,4128.076923,4135.769231,25,13,,,,,,,,,,,,,,,,,
83,16,4125.128205,4118.846154,4127.564102,4121.025641,4122.179487,4121.923077,3990.76923,4120.51282,4107.564102,4115.769231,4126.666666,4127.179487,4127.820513,4133.461538,19,13,,,,,,,,,,,,,,,,,
84,16,4124.230769,4120.641025,4126.538461,4127.820513,4118.717948,4122.307692,3989.871794,4119.743589,4105.384615,4096.410256,4127.820513,4124.743589,4127.692307,4132.948718,0,13,,,,,,,,,,,,,,,,,
85,16,4126.538461,4125.897436,4130,4133.589743,4119.743589,4123.589743,3998.589743,4117.948718,4106.923077,4090.384615,4131.923077,4134.102564,4128.461538,4138.717949,174,12,,,,,,,,,,,,,,,,,
86,16,4126.282051,4122.564102,4131.410256,4127.179487,4120.25641,4122.307692,3998.717948,4117.692307,4103.076923,4098.205128,4126.666666,4133.846154,4124.615384,4137.692307,25,13,,,,,,,,,,,,,,,,,
87,16,4115.897436,4116.666666,4117.564102,4116.923077,4108.589743,4119.615384,3997.692307,4118.717948,4102.179487,4099.230769,4115.25641,4120.128205,4117.307692,4126.923077,19,13,,,,,,,,,,,,,,,,,
88,16,4118.974359,4115.384615,4116.666666,4117.564102,4105.641025,4120.641025,3999.615384,4122.820513,4107.051282,4096.923077,4110.128205,4114.871795,4112.692307,4125.641025,0,13,,,,,,,,,,,,,,,,,
89,16,4122.948718,4115.384615,4118.076923,4122.307692,4122.307692,4122.692307,4000.128205,4122.307692,4110.25641,4101.410256,4116.666666,4120.641025,4116.666666,4132.179487,174,12,,,,,,,,,,,,,,,,,
90,16,4121.025641,4113.846154,4119.358974,4117.307692,4121.666666,4120.384615,3997.692307,4114.615384,4103.846154,4094.358974,4118.974359,4123.333333,4117.820513,4129.102564,25,13,,,,,,,,,,,,,,,,,
91,16,4122.051282,4111.794872,4120.769231,4114.102564,4107.820513,4118.974359,3993.461538,4112.435897,4094.615384,4077.307692,4109.871795,4117.820513,4111.282051,4121.282051,19,13,,,,,,,,,,,,,,,,,
92,16,4119.615384,4115.384615,4111.538461,4117.692307,4114.102564,4117.692307,3996.538461,4120,4098.589743,4082.948718,4107.564102,4113.589743,4111.025641,4124.102564,0,13,,,,,,,,,,,,,,,,,
93,16,4121.923077,4115.384615,4115.769231,4116.794872,4116.282051,4114.615384,3999.743589,4123.333333,4102.692307,4091.538461,4108.846154,4112.435897,4111.666666,4124.358974,174,12,,,,,,,,,,,,,,,,,
94,16,4123.333333,4112.179487,4120.897436,4114.230769,4111.410256,4116.666666,3999.102564,4119.871795,4103.461538,4094.102564,4113.846154,4118.589743,4113.076923,4121.666666,25,13,,,,,,,,,,,,,,,,,
95,16,4121.923077,4115.25641,4119.871795,4116.153846,4113.461538,4118.846154,4001.923076,4121.153846,4107.692307,4101.282051,4121.025641,4125,4121.282051,4131.153846,19,13,,,,,,,,,,,,,,,,,
96,16,4124.871795,4114.871795,4120,4115.769231,4109.615384,4112.435897,4003.717948,4122.435897,4106.923077,4099.102564,4115.641025,4118.974359,4123.846154,4139.358974,0,13,,,,,,,,,,,,,,,,,
97,16,4121.923077,4111.923077,4115.641025,4113.846154,4107.564102,4111.410256,4001.923076,4121.410256,4106.666666,4097.051282,4113.846154,4114.871795,4122.948718,4138.717949,174,12,,,,,,,,,,,,,,,,,
98,16,4122.179487,4112.948718,4120.897436,4115.128205,4111.666666,4120.25641,4001.02564,4122.307692,4108.589743,4091.666666,4119.615384,4120.51282,4124.871795,4136.666666,25,13,,,,,,,,,,,,,,,,,
99,16,4122.179487,4115.51282,4117.435897,4115.25641,4114.487179,4120.51282,4008.974358,4122.564102,4113.205128,4088.333333,4120.384615,4120.897436,4128.076923,4135.769231,19,13,,,,,,,,,,,,,,,,,
100,16,4120.641025,4114.230769,4112.692307,4117.948718,4110.128205,4117.435897,4018.461538,4120.128205,4117.564102,4100.897436,4121.025641,4116.282051,4129.230769,4133.717948,0,13,,,,,,,,,,,,,,,,,
101,16,4127.692307,4116.025641,4122.564102,4122.435897,4109.102564,4120.897436,4018.717948,4120.128205,4114.615384,4111.153846,4123.974359,4117.435897,4125.769231,4132.948718,174,12,,,,,,,,,,,,,,,,,
102,16,4130.769231,4126.666666,4121.666666,4122.179487,4123.333333,4122.307692,4025.25641,4124.487179,4117.051282,4119.615384,4131.923077,4127.692307,4132.179487,4137.820513,25,13,,,,,,,,,,,,,,,,,
103,16,4137.307692,4129.615384,4126.282051,4124.615384,4128.461538,4120.769231,4032.051282,4125.128205,4120.897436,4122.435897,4133.589743,4133.589743,4140.897436,4143.974359,19,13,,,,,,,,,,,,,,,,,
104,16,4140.384615,4125.384615,4128.974359,4125.128205,4122.051282,4120.25641,4030.25641,4121.025641,4119.871795,4112.435897,4129.230769,4128.333333,4140,4142.820513,0,13,,,,,,,,,,,,,,,,,
105,16,4133.974359,4128.974359,4123.589743,4123.076923,4125.25641,4120.641025,4036.410256,4121.410256,4119.615384,4113.717948,4133.461538,4127.435897,4139.871795,4142.435897,174,12,,,,,,,,,,,,,,,,,
106,16,4140,4131.153846,4132.051282,4125.769231,4126.666666,4121.923077,4052.051282,4125.897436,4124.358974,4130.51282,4135.51282,4135.897436,4143.461538,4151.282051,25,13,,,,,,,,,,,,,,,,,
107,16,4143.333333,4126.666666,4129.871795,4122.564102,4120.51282,4122.179487,4059.358974,4127.307692,4131.538461,4135.25641,4130.769231,4140.25641,4146.282051,4155.128205,19,13,,,,,,,,,,,,,,,,,
108,16,4141.025641,4127.564102,4128.974359,4121.538461,4118.717948,4121.538461,4053.974359,4124.230769,4127.179487,4121.025641,4135.384615,4135.51282,4146.923077,4150.897436,0,13,,,,,,,,,,,,,,,,,
109,16,4140.384615,4133.076923,4134.615384,4131.923077,4124.743589,4122.435897,4057.307692,4121.794872,4125.25641,4123.717948,4144.74359,4137.179487,4150.51282,4152.435897,174,12,,,,,,,,,,,,,,,,,
110,16,4138.333333,4131.282051,4130.641025,4132.307692,4127.051282,4122.564102,4067.051282,4124.230769,4131.282051,4137.307692,4139.615384,4140.897436,4149.230769,4154.358974,25,13,,,,,,,,,,,,,,,,,
111,16,4138.846154,4128.717948,4132.435897,4125.384615,4123.846154,4121.410256,4066.410256,4124.871795,4125,4127.948718,4132.820513,4136.153846,4141.282051,4152.307692,19,13,,,,,,,,,,,,,,,,,
112,16,4137.179487,4135.769231,4136.153846,4132.948718,4129.358974,4122.435897,4071.153846,4123.461538,4125.25641,4121.025641,4144.487179,4138.717949,4148.205128,4154.230769,0,13,,,,,,,,,,,,,,,,,
113,16,4141.538461,4138.076923,4142.948718,4142.179487,4128.717948,4123.974359,4079.230769,4127.307692,4135.897436,4132.051282,4150,4149.102564,4156.666666,4155.897436,174,12,,,,,,,,,,,,,,,,,
114,16,4146.666666,4134.230769,4144.230769,4137.820513,4123.461538,4122.820513,4077.948718,4129.102564,4135.769231,4142.564102,4147.820513,4153.717949,4153.589743,4156.923077,25,13,,,,,,,,,,,,,,,,,
115,16,4144.487179,4135.128205,4138.333333,4136.153846,4132.051282,4122.051282,4078.333333,4124.871795,4130.25641,4139.102564,4152.307692,4154.871795,4156.923077,4160.897436,19,13,,,,,,,,,,,,,,,,,
116,16,4143.846154,4133.333333,4140.51282,4137.948718,4132.051282,4121.666666,4083.846154,4121.923077,4126.282051,4125.51282,4145.897436,4152.435897,4154.74359,4157.179487,0,13,,,,,,,,,,,,,,,,,
117,16,4135.769231,4129.102564,4135.128205,4135,4124.871795,4120.384615,4084.102564,4122.692307,4127.820513,4127.820513,4139.230769,4145.51282,4146.410256,4148.461538,174,12,,,,,,,,,,,,,,,,,
118,16,4134.230769,4127.948718,4137.051282,4136.794872,4124.871795,4121.282051,4082.051282,4123.717948,4129.230769,4135.384615,4145,4146.794872,4148.974359,4151.025641,25,13,,,,,,,,,,,,,,,,,
119,16,4140,4126.794872,4141.153846,4135.51282,4121.153846,4123.205128,4085,4125,4124.102564,4129.487179,4145.25641,4150.384615,4151.025641,4157.051282,19,13,,,,,,,,,,,,,,,,,
120,16,4134.871795,4125.25641,4130.384615,4125.384615,4120.25641,4121.794872,4086.153846,4126.282051,4126.282051,4128.974359,4138.974359,4144.615384,4143.846154,4150.897436,0,13,,,,,,,,,,,,,,,,,
121,16,4134.615384,4126.666666,4130.641025,4121.410256,4121.025641,4120.769231,4086.282051,4128.205128,4130.769231,4128.974359,4133.205128,4138.205128,4137.948718,4142.948718,174,12,,,,,,,,,,,,,,,,,
122,16,4133.076923,4127.820513,4130.128205,4126.025641,4119.871795,4122.435897,4092.179487,4127.948718,4129.487179,4122.307692,4131.794872,4136.025641,4139.230769,4140.769231,25,13,,,,,,,,,,,,,,,,,
123,16,4127.179487,4120.128205,4125,4124.102564,4120.51282,4121.923077,4089.230769,4122.051282,4121.538461,4118.333333,4128.717948,4134.743589,4132.564102,4137.820513,19,13,,,,,,,,,,,,,,,,,
124,16,4128.076923,4116.794872,4124.102564,4119.230769,4120.384615,4121.923077,4083.461538,4119.871795,4114.615384,4109.358974,4126.153846,4130.25641,4127.179487,4135.769231,0,13,,,,,,,,,,,,,,,,,
125,16,4128.461538,4123.846154,4119.871795,4121.666666,4119.615384,4122.307692,4087.435897,4123.205128,4118.589743,4102.564102,4128.589743,4128.589743,4134.102564,4138.589743,174,12,,,,,,,,,,,,,,,,,
126,16,4133.076923,4124.102564,4124.743589,4125.641025,4118.333333,4121.538461,4086.666666,4123.205128,4118.205128,4110.25641,4125.128205,4131.538461,4130.384615,4139.74359,25,13,,,,,,,,,,,,,,,,,
127,16,4130.897436,4121.153846,4123.589743,4124.743589,4120.897436,4121.923077,4086.538461,4120.897436,4116.153846,4123.461538,4125.128205,4133.974359,4124.871795,4136.666666,54,0,,,,,,,,,,,,,,,,,
0,16,4128.589743,4128.076923,4126.025641,4128.205128,4125.897436,4124.487179,4095.384615,4121.538461,4123.333333,4128.589743,4134.358974,4135.641025,4136.025641,4137.820513,208,11,,,,,,,,,,,,,,,,,
1,16,4134.358974,4134.743589,4136.282051,4135.769231,4126.282051,4124.615384,4100,4123.461538,4126.538461,4123.846154,4135.384615,4137.435897,4143.461538,4141.794872,243,12,,,,,,,,,,,,,,,,,
2,16,4131.410256,4129.743589,4128.333333,4131.794872,4127.051282,4121.923077,4100.128205,4124.487179,4123.076923,4118.461538,4128.974359,4134.871795,4136.794872,4141.923077,234,10,,,,,,,,,,,,,,,,,
3,16,4132.435897,4120.769231,4127.692307,4123.589743,4122.051282,4123.589743,4102.564102,4123.589743,4120.769231,4116.794872,4123.974359,4131.666666,4132.307692,4141.282051,57,12,,,,,,,,,,,,,,,,,
4,16,4133.974359,4122.435897,4126.666666,4124.358974,4118.333333,4125.128205,4108.846154,4123.333333,4124.615384,4118.076923,4120.641025,4130.769231,4135.51282,4141.282051,252,13,,,,,,,,,,,,,,,,,
5,16,4131.923077,4130.641025,4122.051282,4128.076923,4122.820513,4122.179487,4115.384615,4125.897436,4127.051282,4110.384615,4120,4127.051282,4133.717948,4139.871795,229,8,,,,,,,,,,,,,,,,,
6,16,4135,4131.025641,4126.923077,4128.717948,4122.307692,4122.692307,4113.589743,4124.871795,4123.589743,4103.589743,4119.102564,4124.358974,4127.948718,4139.487179,161,12,,,,,,,,,,,,,,,,,
7,16,4134.487179,4126.282051,4123.461538,4127.051282,4120.769231,4122.179487,4106.538461,4120.128205,4122.820513,4118.461538,4117.051282,4129.743589,4131.410256,4140.641025,51,5,,,,,,,,,,,,,,,,,
8,16,4136.025641,4121.666666,4123.205128,4122.435897,4114.871795,4116.923077,4103.846154,4120.769231,4122.948718,4125.769231,4114.358974,4127.179487,4132.820513,4141.025641,135,12,,,,,,,,,,,,,,,,,
9,16,4137.307692,4122.179487,4124.102564,4122.564102,4111.794872,4115.769231,4103.589743,4122.820513,4125.128205,4116.025641,4117.820513,4121.666666,4130.897436,4141.410256,130,13,,,,,,,,,,,,,,,,,
10,16,4137.948718,4130.897436,4126.410256,4132.435897,4120.128205,4120.384615,4102.179487,4121.282051,4132.692307,4116.666666,4126.923077,4131.153846,4133.974359,4142.948718,16,13,,,,,,,,,,,,,,,,,
11,16,4141.794872,4132.820513,4133.461538,4137.820513,4122.820513,4123.076923,4104.230769,4122.564102,4138.589743,4125.25641,4128.076923,4138.205128,4134.487179,4141.410256,17,13,,,,,,,,,,,,,,,,,
12,16,4138.589743,4129.358974,4126.410256,4136.666666,4126.282051,4122.948718,4115.25641,4124.230769,4147.564102,4127.307692,4128.461538,4135,4138.205128,4140.25641,247,12,,,,,,,,,,,,,,,,,
13,16,4135.25641,4130.897436,4125.128205,4133.846154,4127.948718,4121.538461,4120.769231,4120,4152.307692,4117.307692,4124.102564,4128.846154,4137.179487,4140.384615,169,12,,,,,,,,,,,,,,,,,
14,16,4130.897436,4127.564102,4123.846154,4127.051282,4119.487179,4119.743589,4110.384615,4119.871795,4148.461538,4112.307692,4114.871795,4120.769231,4124.615384,4136.410256,16,13,,,,,,,,,,,,,,,,,
15,16,4125.128205,4119.743589,4118.333333,4121.410256,4116.153846,4120.641025,4102.692307,4121.666666,4143.974359,4114.871795,4116.153846,4118.205128,4121.923077,4134.615384,17,13,,,,,,,,,,,,,,,,,
16,16,4130.25641,4122.307692,4125.769231,4124.230769,4118.205128,4122.051282,4107.435897,4121.410256,4148.333333,4113.333333,4120,4122.692307,4128.846154,4137.307692,0,0,,,,,,,,,,,,,,,,,
17,16,4128.589743,4130.897436,4123.589743,4127.564102,4121.538461,4121.153846,4114.487179,4124.487179,4165.128205,4124.230769,4122.948718,4127.051282,4131.666666,4135.769231,0,0,,,,,,,,,,,,,,,,,
18,16,4123.461538,4126.666666,4120,4124.487179,4121.410256,4120.384615,4109.230769,4124.871795,4162.179487,4128.333333,4117.179487,4122.692307,4124.487179,4129.615384,0,0,,,,,,,,,,,,,,,,,
19,16,4122.307692,4116.923077,4117.820513,4124.102564,4120.51282,4119.358974,4097.948718,4119.487179,4145,4107.435897,4107.051282,4114.487179,4119.230769,4123.846154,0,0,,,,,,,,,,,,,,,,,
20,16,4120.128205,4119.743589,4113.717948,4123.846154,4121.153846,4120.897436,4098.076923,4120.897436,4153.076923,4102.307692,4111.410256,4115.641025,4125.128205,4123.974359,0,0,,,,,,,,,,,,,,,,,
21,16,4129.358974,4126.666666,4126.410256,4123.333333,4122.179487,4123.333333,4103.717948,4126.666666,4168.076923,4118.974359,4121.666666,4123.205128,4131.410256,4133.461538,0,0,,,,,,,,,,,,,,,,,
22,16,4133.461538,4128.461538,4128.717948,4129.743589,4128.076923,4123.717948,4107.564102,4124.743589,4171.538461,4132.051282,4128.076923,4127.307692,4133.974359,4140.897436,0,0,,,,,,,,,,,,,,,,,
23,16,4127.692307,4126.025641,4124.230769,4133.076923,4123.333333,4122.948718,4106.410256,4121.282051,4169.102564,4127.820513,4126.153846,4128.461538,4130.51282,4137.564102,0,0,,,,,,,,,,,,,,,,,
24,16,4125.128205,4127.307692,4127.435897,4128.974359,4116.923077,4124.487179,4107.948718,4121.538461,4165.384615,4114.230769,4124.615384,4129.615384,4129.102564,4135.769231,0,0,,,,,,,,,,,,,,,,,
25,16,4123.717948,4127.564102,4125,4126.282051,4126.666666,4125.897436,4112.692307,4121.923077,4164.615384,4109.743589,4123.205128,4128.076923,4132.051282,4135,0,0,,,,,,,,,,,,,,,,,
26,16,4122.692307,4120,4121.794872,4125.641025,4127.820513,4123.205128,4105.25641,4120.897436,4157.435897,4104.102564,4107.051282,4117.051282,4119.487179,4126.538461,0,0,,,,,,,,,,,,,,,,,
27,16,4115,4120.897436,4113.846154,4123.589743,4123.333333,4120.641025,4095.641025,4118.205128,4145.897436,4102.692307,4095.897436,4106.025641,4106.410256,4119.743589,0,0,,,,,,,,,,,,,,,,,
28,16,4117.820513,4126.025641,4115.128205,4122.820513,4122.179487,4122.051282,4096.794871,4119.615384,4146.666666,4111.410256,4105,4110.25641,4113.846154,4121.410256,0,0,,,,,,,,,,,,,,,,,
29,16,4126.025641,4122.564102,4122.948718,4128.205128,4120.897436,4124.230769,4097.564102,4124.230769,4158.717949,4114.743589,4114.871795,4119.871795,4125.25641,4127.564102,0,0,,,,,,,,,,,,,,,,,
30,16,4120.769231,4120.897436,4120.641025,4129.102564,4125.128205,4123.205128,4097.179487,4124.743589,4162.179487,4115.25641,4118.205128,4123.589743,4126.794872,4134.487179,0,0,,,,,,,,,,,,,,,,,
31,16,4125.641025,4122.820513,4126.923077,4127.820513,4123.589743,4121.410256,4096.538461,4122.564102,4154.230769,4120.384615,4120.128205,4125.769231,4125.128205,4138.333333,0,0,,,,,,,,,,,,,,,,,
32,16,4129.871795,4124.358974,4127.435897,4131.282051,4125.25641,4121.666666,4093.461538,4123.205128,4158.589743,4120.641025,4124.358974,4128.461538,4133.717948,4138.076923,0,0,,,,,,,,,,,,,,,,,
33,16,4125.384615,4129.487179,4125.128205,4135.128205,4135.769231,4123.717948,4093.717948,4125.128205,4165.51282,4111.923077,4127.179487,4130.641025,4141.794872,4138.717949,0,0,,,,,,,,,,,,,,,,,
34,16,4128.333333,4130.384615,4130.128205,4134.743589,4131.410256,4124.487179,4095.641025,4124.358974,4160.51282,4119.615384,4126.923077,4132.692307,4135.769231,4138.333333,0,0,,,,,,,,,,,,,,,,,
35,16,4128.333333,4127.051282,4125.897436,4133.205128,4122.692307,4122.820513,4093.717948,4121.410256,4160.641025,4144.74359,4127.692307,4132.692307,4133.333333,4136.794872,0,0,,,,,,,,,,,,,,,,,
36,16,4129.615384,4127.820513,4128.974359,4135.897436,4128.461538,4124.230769,4091.410256,4121.794872,4163.461538,4144.487179,4126.794872,4133.076923,4137.820513,4138.717949,0,0,,,,,,,,,,,,,,,,,
37,16,4129.358974,4129.615384,4128.205128,4134.871795,4140.128205,4125.769231,4095.76923,4125,4162.307692,4131.282051,4126.666666,4135.384615,4139.74359,4139.871795,0,0,,,,,,,,,,,,,,,,,
38,16,4124.743589,4127.435897,4121.153846,4126.282051,4138.333333,4123.589743,4096.153846,4124.487179,4157.564102,4129.102564,4125.641025,4128.717948,4134.102564,4136.794872,0,0,,,,,,,,,,,,,,,,,
39,16,4124.102564,4121.794872,4121.666666,4121.538461,4124.615384,4122.820513,4087.820512,4121.282051,4146.410256,4117.307692,4117.692307,4119.615384,4125.51282,4132.820513,0,0,,,,,,,,,,,,,,,,,
40,16,4129.743589,4127.435897,4121.282051,4130.128205,4126.282051,4124.871795,4090.128205,4122.564102,4145.25641,4118.333333,4121.025641,4127.564102,4129.487179,4137.179487,0,0,,,,,,,,,,,,,,,,,
41,16,4139.74359,4134.615384,4130.641025,4137.564102,4134.358974,4123.974359,4093.974359,4123.717948,4145.641025,4132.692307,4127.692307,4137.564102,4135.384615,4142.307692,0,0,,,,,,,,,,,,,,,,,
42,16,4133.717948,4129.871795,4130,4130.897436,4133.461538,4121.923077,4088.333333,4122.051282,4143.205128,4124.102564,4124.871795,4137.564102,4132.307692,4139.74359,0,0,,,,,,,,,,,,,,,,,
43,16,4128.205128,4127.820513,4123.974359,4129.871795,4132.692307,4123.461538,4083.205128,4122.692307,4149.615384,4118.205128,4125.128205,4136.666666,4133.717948,4138.846154,0,0,,,,,,,,,,,,,,,,,
44,16,4138.205128,4131.153846,4133.717948,4139.230769,4132.435897,4124.743589,4080.51282,4123.461538,4148.846154,4131.666666,4127.948718,4137.948718,4137.307692,4142.179487,0,0,,,,,,,,,,,,,,,,,
45,16,4134.615384,4130.25641,4130.897436,4137.435897,4133.205128,4123.205128,4077.948718,4122.948718,4145.51282,4136.794872,4131.282051,4138.846154,4137.179487,4142.051282,0,0,,,,,,,,,,,,,,,,,
46,16,4127.564102,4123.974359,4126.282051,4127.692307,4131.666666,4122.307692,4073.333333,4124.743589,4147.307692,4127.435897,4132.820513,4136.538461,4135,4138.846154,0,0,,,,,,,,,,,,,,,,,
47,16,4130.384615,4126.666666,4130.128205,4131.025641,4133.205128,4123.717948,4071.153846,4125.25641,4148.717949,4133.333333,4138.333333,4138.333333,4138.846154,4139.615384,0,0,,,,,,,,,,,,,,,,,
48,16,4131.282051,4133.205128,4132.564102,4137.179487,4133.974359,4124.358974,4070.25641,4122.948718,4143.333333,4140.384615,4142.564102,4143.589743,4141.538461,4143.205128,0,0,,,,,,,,,,,,,,,,,
49,16,4127.435897,4123.589743,4126.666666,4127.692307,4123.461538,4123.205128,4061.794871,4120.641025,4128.076923,4114.358974,4128.076923,4131.923077,4124.102564,4135.128205,0,0,,,,,,,,,,,,,,,,,
50,16,4117.820513,4113.589743,4110.769231,4116.282051,4119.743589,4121.410256,4057.435897,4119.358974,4121.025641,4092.564102,4115.51282,4114.487179,4110.25641,4120.25641,0,0,,,,,,,,,,,,,,,,,
51,16,4120.25641,4116.153846,4117.564102,4119.102564,4122.435897,4122.692307,4060.128205,4121.666666,4124.743589,4099.230769,4121.282051,4115.897436,4115.897436,4122.564102,0,0,,,,,,,,,,,,,,,,,
52,16,4127.051282,4118.846154,4125.384615,4122.948718,4122.820513,4123.717948,4059.615384,4123.461538,4128.846154,4109.102564,4130.769231,4123.076923,4123.205128,4131.025641,0,0,,,,,,,,,,,,,,,,,
53,16,4121.794872,4117.435897,4116.153846,4121.282051,4127.820513,4122.435897,4055.51282,4122.564102,4128.461538,4115.897436,4131.666666,4123.205128,4123.974359,4130.769231,0,0,,,,,,,,,,,,,,,,,
54,16,4125.25641,4117.948718,4121.410256,4121.923077,4130.51282,4122.692307,4052.564102,4123.333333,4125.25641,4124.487179,4128.846154,4122.307692,4121.410256,4133.461538,0,0,,,,,,,,,,,,,,,,,
55,16,4126.923077,4121.923077,4122.564102,4123.717948,4127.692307,4123.589743,4053.461538,4122.564102,4130.25641,4130.128205,4136.794872,4124.871795,4126.923077,4138.076923,0,0,,,,,,,,,,,,,,,,,
56,16,4126.282051,4124.743589,4123.589743,4126.025641,4122.948718,4122.820513,4052.179487,4123.717948,4136.282051,4125.641025,4143.974359,4132.307692,4136.282051,4139.102564,0,0,,,,,,,,,,,,,,,,,
57,16,4129.743589,4125.769231,4129.487179,4127.692307,4125,4123.205128,4049.487179,4127.051282,4133.076923,4126.282051,4141.025641,4139.230769,4137.820513,4142.179487,0,0,,,,,,,,,,,,,,,,,
58,16,4127.307692,4126.923077,4128.076923,4130,4128.461538,4122.564102,4049.358974,4123.846154,4126.666666,4126.538461,4140.769231,4139.358974,4134.743589,4143.076923,0,0,,,,,,,,,,,,,,,,,
59,16,4129.871795,4130.641025,4132.820513,4135.384615,4122.692307,4122.692307,4047.692307,4119.743589,4120.769231,4108.717948,4141.794872,4137.564102,4132.564102,4139.74359,0,0,,,,,,,,,,,,,,,,,
60,16,4132.820513,4136.666666,4130.769231,4137.948718,4128.205128,4127.307692,4051.153846,4122.435897,4125,4109.871795,4143.589743,4140.51282,4138.589743,4141.538461,0,0,,,,,,,,,,,,,,,,,
61,16,4136.025641,4136.923077,4132.564102,4136.666666,4139.102564,4127.692307,4051.794871,4123.846154,4128.717948,4132.179487,4143.974359,4142.435897,4139.487179,4143.589743,0,0,,,,,,,,,,,,,,,,,
62,16,4137.820513,4134.615384,4140.769231,4138.205128,4137.179487,4123.589743,4043.846153,4121.923077,4121.153846,4132.948718,4142.179487,4139.487179,4133.205128,4140.384615,0,0,,,,,,,,,,,,,,,,,
63,16,4132.692307,4136.153846,4134.871795,4139.615384,4136.923077,4124.615384,4043.205128,4123.076923,4120.51282,4125.769231,4146.153846,4142.179487,4135.769231,4140.897436,0,0,,,,,,,,,,,,,,,,,
64,16,4135.641025,4136.025641,4137.307692,4139.102564,4137.820513,4127.435897,4043.717948,4123.846154,4123.205128,4127.435897,4149.230769,4149.102564,4143.333333,4147.692307,209,11,,,,,,,,,,,,,,,,,
65,16,4137.051282,4137.179487,4138.717949,4138.717949,4134.102564,4126.666666,4035.76923,4122.435897,4122.820513,4128.333333,4153.076923,4149.487179,4148.589743,4152.820513,243,12,,,,,,,,,,,,,,,,,
66,16,4138.846154,4138.461538,4139.615384,4136.794872,4127.820513,4125.769231,4031.153846,4123.974359,4123.589743,4133.974359,4158.589743,4149.487179,4147.820513,4153.717949,238,10,,,,,,,,,,,,,,,,,
67,16,4144.74359,4138.974359,4143.589743,4136.282051,4127.948718,4126.794872,4035.51282,4125.25641,4123.589743,4140.769231,4155.384615,4151.153846,4144.230769,4152.435897,57,12,,,,,,,,,,,,,,,,,
68,16,4141.923077,4141.025641,4138.589743,4137.051282,4137.948718,4126.538461,4038.461538,4125,4123.846154,4135.384615,4152.564102,4151.025641,4146.923077,4151.153846,5,14,,,,,,,,,,,,,,,,,
69,16,4142.051282,4137.820513,4140.25641,4133.717948,4133.846154,4126.794872,4035.384615,4124.102564,4121.923077,4131.794872,4156.410256,4151.666666,4147.820513,4153.333333,230,8,,,,,,,,,,,,,,,,,
70,16,4143.461538,4132.692307,4136.025641,4131.794872,4127.692307,4128.205128,4034.871794,4125.25641,4124.358974,4145.897436,4154.871795,4150.128205,4144.615384,4152.179487,155,12,,,,,,,,,,,,,,,,,
71,16,4142.564102,4132.820513,4133.076923,4135,4135.769231,4127.179487,4033.974358,4127.564102,4123.589743,4140,4144.871795,4145.384615,4139.487179,4144.487179,51,5,,,,,,,,,,,,,,,,,
72,16,4139.487179,4132.948718,4138.333333,4136.794872,4132.051282,4125.51282,4028.717948,4125.769231,4113.974359,4117.051282,4142.051282,4143.461538,4134.487179,4138.461538,129,12,,,,,,,,,,,,,,,,,
73,16,4132.948718,4135.128205,4133.205128,4137.051282,4127.948718,4125.897436,4028.974358,4123.846154,4118.461538,4131.025641,4150.25641,4144.871795,4138.205128,4140.641025,129,13,,,,,,,,,,,,,,,,,
74,16,4136.282051,4136.923077,4135.384615,4138.589743,4132.564102,4126.025641,4027.564102,4125.25641,4124.487179,4147.435897,4148.205128,4141.025641,4138.333333,4141.794872,16,13,,,,,,,,,,,,,,,,,
75,16,4134.743589,4133.076923,4134.102564,4135.51282,4133.333333,4122.435897,4022.564102,4125.897436,4120,4135.769231,4139.102564,4137.307692,4132.564102,4137.948718,17,13,,,,,,,,,,,,,,,,,
76,16,4130.128205,4133.205128,4130.769231,4133.589743,4135,4122.820513,4026.153846,4125.384615,4119.615384,4135.769231,4139.871795,4138.076923,4135.897436,4140.641025,250,12,,,,,,,,,,,,,,,,,
77,16,4136.282051,4134.615384,4136.410256,4137.692307,4135.25641,4125.897436,4030.128205,4127.307692,4122.820513,4138.974359,4143.717949,4139.102564,4138.076923,4144.230769,169,12,,,,,,,,,,,,,,,,,
78,16,4135.384615,4132.564102,4132.051282,4133.589743,4134.230769,4122.820513,4028.461538,4127.948718,4126.410256,4127.307692,4146.410256,4140.25641,4137.692307,4141.538461,16,13,,,,,,,,,,,,,,,,,
79,16,4137.179487,4133.589743,4135.384615,4128.846154,4132.692307,4123.333333,4028.974358,4126.538461,4123.461538,4123.846154,4144.358974,4138.333333,4137.051282,4145.769231,17,13,,,,,,,,,,,,,,,,,
80,16,4141.153846,4136.282051,4137.564102,4135.897436,4136.025641,4127.179487,4030.384615,4124.871795,4117.820513,4135.25641,4141.666666,4136.538461,4135.51282,4151.538461,250,12,,,,,,,,,,,,,,,,,
81,16,4137.307692,4135.641025,4131.410256,4137.051282,4140.769231,4126.282051,4030.51282,4124.743589,4119.358974,4140.128205,4141.410256,4139.74359,4133.461538,4146.794872,169,12,,,,,,,,,,,,,,,,,
82,16,4137.564102,4135.897436,4135.128205,4127.051282,4137.435897,4126.410256,4034.102564,4132.179487,4121.923077,4131.666666,4134.871795,4137.435897,4128.205128,4140.51282,16,13,,,,,,,,,,,,,,,,,
83,16,4132.820513,4138.076923,4128.205128,4126.666666,4135.641025,4126.794872,4036.923077,4132.564102,4118.717948,4130.384615,4131.410256,4128.461538,4128.589743,4138.974359,17,13,,,,,,,,,,,,,,,,,
84,16,4131.794872,4135.769231,4126.794872,4135.128205,4134.487179,4124.358974,4031.538461,4124.358974,4116.923077,4133.205128,4135.128205,4130.51282,4132.948718,4141.153846,250,12,,,,,,,,,,,,,,,,,
85,16,4140.128205,4138.589743,4135,4138.461538,4135.769231,4125.384615,4032.435897,4127.307692,4127.948718,4141.538461,4140.25641,4137.692307,4137.307692,4149.358974,169,12,,,,,,,,,,,,,,,,,
86,16,4141.410256,4143.205128,4132.307692,4136.153846,4139.358974,4126.282051,4039.615384,4134.615384,4134.615384,4142.307692,4143.717949,4135.897436,4140.641025,4152.435897,16,13,,,,,,,,,,,,,,,,,
87,16,4140.51282,4135.769231,4131.025641,4131.282051,4135.128205,4123.205128,4036.153846,4130.25641,4123.461538,4121.794872,4139.615384,4132.435897,4138.589743,4146.025641,17,13,,,,,,,,,,,,,,,,,
88,16,4138.461538,4133.974359,4128.974359,4129.230769,4137.692307,4128.205128,4037.179487,4125.384615,4124.743589,4130.769231,4140.384615,4130,4140.128205,4148.076923,250,12,,,,,,,,,,,,,,,,,
89,16,4143.717949,4142.051282,4137.179487,4135.641025,4146.538461,4136.923077,4044.487179,4128.333333,4133.974359,4162.820513,4150.769231,4127.692307,4146.794872,4155.641025,169,12,,,,,,,,,,,,,,,,,
90,16,4148.846154,4143.333333,4140.897436,4140.769231,4147.435897,4132.692307,4040.641025,4126.282051,4129.230769,4162.948718,4155.128205,4135.128205,4150.384615,4155.51282,16,13,,,,,,,,,,,,,,,,,
91,16,4144.102564,4137.948718,4131.025641,4132.051282,4141.923077,4123.333333,4037.820512,4125.25641,4126.538461,4150.25641,4149.102564,4143.974359,4148.076923,4154.871795,17,13,,,,,,,,,,,,,,,,,
92,16,4143.717949,4133.333333,4132.307692,4126.025641,4140.128205,4128.333333,4044.102564,4127.435897,4126.025641,4145.641025,4138.076923,4137.564102,4137.948718,4152.435897,250,12,,,,,,,,,,,,,,,,,
93,16,4142.564102,4134.230769,4131.025641,4132.435897,4148.589743,4135.641025,4049.615384,4125.897436,4124.102564,4135,4138.974359,4133.589743,4138.974359,4150.384615,169,12,,,,,,,,,,,,,,,,,
94,16,4142.948718,4138.205128,4133.333333,4137.179487,4148.974359,4128.846154,4047.307692,4127.307692,4122.307692,4127.692307,4144.487179,4140,4143.974359,4153.974359,16,13,,,,,,,,,,,,,,,,,
95,16,4144.871795,4138.846154,4138.076923,4135.128205,4139.615384,4123.589743,4046.923077,4126.794872,4118.461538,4137.692307,4142.179487,4139.230769,4136.666666,4154.358974,17,13,,,,,,,,,,,,,,,,,
96,16,4141.153846,4137.435897,4134.358974,4134.102564,4137.820513,4128.717948,4053.076923,4124.487179,4119.358974,4141.153846,4142.692307,4138.717949,4134.743589,4151.153846,250,12,,,,,,,,,,,,,,,,,
97,16,4145.128205,4134.487179,4139.358974,4135.25641,4136.282051,4130.897436,4055.51282,4128.333333,4119.102564,4123.333333,4141.666666,4141.282051,4136.025641,4149.871795,169,12,,,,,,,,,,,,,,,,,
98,16,4148.589743,4140.128205,4140,4136.153846,4141.666666,4127.692307,4058.461538,4131.666666,4120.641025,4127.948718,4142.307692,4141.282051,4136.282051,4151.025641,16,13,,,,,,,,,,,,,,,,,
99,16,4148.846154,4149.102564,4141.538461,4139.230769,4148.717949,4127.051282,4063.076923,4128.333333,4123.076923,4151.410256,4148.076923,4145.25641,4140.51282,4155,17,13,,,,,,,,,,,,,,,,,
100,16,4147.820513,4145,4143.717949,4139.74359,4141.666666,4129.487179,4063.461538,4126.153846,4120.51282,4139.487179,4150.128205,4147.051282,4141.666666,4155.51282,250,12,,,,,,,,,,,,,,,,,
101,16,4141.282051,4140.51282,4138.205128,4135.897436,4141.153846,4133.076923,4066.153846,4127.948718,4122.948718,4127.435897,4152.435897,4144.615384,4139.487179,4152.564102,169,12,,,,,,,,,,,,,,,,,
102,16,4148.846154,4149.230769,4145.641025,4138.589743,4147.179487,4133.717948,4066.666666,4128.846154,4127.692307,4145.641025,4151.666666,4149.102564,4140.897436,4157.435897,16,13,,,,,,,,,,,,,,,,,
103,16,4152.948718,4154.358974,4147.051282,4146.025641,4146.153846,4129.102564,4066.153846,4127.435897,4130.25641,4159.74359,4151.923077,4154.358974,4147.307692,4164.358974,17,13,,,,,,,,,,,,,,,,,
104,16,4145.384615,4142.692307,4140,4138.589743,4137.179487,4124.102564,4067.435897,4125.51282,4125.128205,4148.589743,4146.410256,4144.230769,4142.820513,4157.564102,250,12,,,,,,,,,,,,,,,,,
105,16,4145,4131.923077,4138.461538,4126.923077,4128.205128,4122.051282,4066.153846,4129.102564,4117.179487,4129.487179,4133.974359,4131.923077,4132.948718,4148.846154,169,12,,,,,,,,,,,,,,,,,
106,16,4146.153846,4139.230769,4136.153846,4131.794872,4133.846154,4127.179487,4069.743589,4133.717948,4123.461538,4132.564102,4139.102564,4141.666666,4140.384615,4152.564102,16,13,,,,,,,,,,,,,,,,,
107,16,4149.74359,4147.307692,4145.128205,4141.410256,4141.153846,4137.179487,4076.410256,4131.538461,4127.051282,4139.230769,4150.769231,4154.487179,4149.615384,4157.051282,17,13,,,,,,,,,,,,,,,,,
108,16,4147.948718,4145,4144.871795,4141.282051,4146.538461,4135.897436,4079.871795,4126.025641,4120.25641,4134.230769,4147.179487,4148.974359,4145.25641,4154.358974,250,12,,,,,,,,,,,,,,,,,
109,16,4146.282051,4146.025641,4138.974359,4139.74359,4152.307692,4127.179487,4079.230769,4122.692307,4118.076923,4135.897436,4139.487179,4145.25641,4137.692307,4152.051282,169,12,,,,,,,,,,,,,,,,,
110,16,4151.025641,4150.128205,4147.179487,4144.487179,4149.358974,4128.974359,4079.102564,4125.641025,4122.179487,4147.179487,4142.948718,4150.51282,4139.102564,4154.487179,16,13,,,,,,,,,,,,,,,,,
111,16,4146.153846,4148.076923,4142.564102,4142.564102,4147.692307,4137.179487,4085,4131.923077,4131.025641,4158.205128,4154.102564,4149.358974,4147.564102,4156.153846,17,13,,,,,,,,,,,,,,,,,
112,16,4146.410256,4145,4139.871795,4135.769231,4148.589743,4138.205128,4087.179487,4133.974359,4132.564102,4156.410256,4157.051282,4145.51282,4149.487179,4154.230769,250,12,,,,,,,,,,,,,,,,,
113,16,4152.692307,4150,4148.076923,4142.564102,4152.051282,4135,4091.410256,4133.333333,4136.025641,4157.692307,4158.461538,4153.589743,4153.974359,4159.74359,169,12,,,,,,,,,,,,,,,,,
114,16,4152.820513,4155.769231,4152.820513,4151.923077,4158.717949,4134.871795,4100.76923,4138.076923,4143.974359,4167.820513,4162.564102,4160.384615,4163.205128,4169.871795,16,13,,,,,,,,,,,,,,,,,
115,16,4153.205128,4148.333333,4152.435897,4145.25641,4153.589743,4137.692307,4100.897436,4139.230769,4136.153846,4156.025641,4161.282051,4154.230769,4161.153846,4168.076923,17,13,,,,,,,,,,,,,,,,,
116,16,4147.564102,4143.076923,4140.641025,4136.282051,4148.076923,4136.794872,4099.358974,4130.897436,4130.128205,4142.307692,4160,4151.410256,4157.948718,4158.717949,250,12,,,,,,,,,,,,,,,,,
117,16,4143.717949,4145,4140.51282,4138.076923,4147.948718,4130.51282,4105.51282,4127.179487,4134.615384,4153.589743,4152.820513,4150,4153.589743,4154.230769,169,12,,,,,,,,,,,,,,,,,
118,16,4144.102564,4143.461538,4140.769231,4138.205128,4146.282051,4129.743589,4112.307692,4130.128205,4135.641025,4166.666666,4143.589743,4142.051282,4146.410256,4153.461538,16,13,,,,,,,,,,,,,,,,,
119,16,4145.25641,4142.179487,4136.410256,4137.820513,4146.410256,4136.538461,4115.128205,4130.384615,4136.153846,4161.282051,4150.128205,4144.358974,4151.410256,4153.717949,17,13,,,,,,,,,,,,,,,,,
120,16,4150.25641,4142.820513,4144.102564,4139.74359,4148.589743,4137.435897,4116.025641,4127.435897,4134.358974,4152.948718,4155,4148.846154,4151.538461,4153.589743,250,12,,,,,,,,,,,,,,,,,
121,16,4148.846154,4145,4140,4138.461538,4153.589743,4134.358974,4120.128205,4131.666666,4135.641025,4155.128205,4151.794872,4143.846154,4146.794872,4152.948718,169,12,,,,,,,,,,,,,,,,,
122,16,4150.25641,4146.025641,4140.384615,4141.410256,4154.230769,4139.230769,4129.230769,4138.589743,4136.538461,4150,4152.564102,4146.666666,4153.076923,4156.410256,16,13,,,,,,,,,,,,,,,,,
123,16,4149.358974,4144.358974,4144.230769,4142.179487,4150.641025,4138.589743,4133.717948,4136.794872,4135.51282,4149.615384,4152.820513,4149.871795,4153.717949,4155.897436,17,13,,,,,,,,,,,,,,,,,
124,16,4142.820513,4141.666666,4138.076923,4134.871795,4147.692307,4129.230769,4129.102564,4134.102564,4135.51282,4158.076923,4147.692307,4140.51282,4144.102564,4151.153846,250,12,,,,,,,,,,,,,,,,,
125,16,4150.641025,4142.435897,4145.128205,4136.538461,4143.974359,4131.794872,4128.846154,4136.025641,4134.743589,4146.923077,4146.538461,4141.794872,4144.871795,4157.820513,169,12,,,,,,,,,,,,,,,,,
126,16,4156.538461,4147.564102,4146.538461,4146.025641,4148.974359,4138.974359,4142.051282,4135.897436,4137.948718,4142.948718,4153.974359,4154.74359,4157.307692,4166.153846,16,13,,,,,,,,,,,,,,,,,
127,16,4152.948718,4147.179487,4139.358974,4146.794872,4152.051282,4133.717948,4142.948718,4130.769231,4134.615384,4155.128205,4149.230769,4147.948718,4151.794872,4161.153846,54,0,,,,,,,,,,,,,,,,,
0,16,4147.307692,4143.205128,4134.230769,4139.102564,4145.641025,4129.102564,4133.076923,4124.358974,4125.128205,4152.564102,4139.102564,4132.307692,4135.769231,4153.205128,208,11,,,,,,,,,,,,,,,,,
1,16,4144.74359,4145.897436,4134.230769,4138.333333,4147.564102,4134.230769,4139.74359,4126.923077,4128.205128,4140.51282,4145,4139.871795,4138.589743,4155.384615,243,12,,,,,,,,,,,,,,,,,
2,16,4154.871795,4149.487179,4145.897436,4148.846154,4152.820513,4138.461538,4144.871795,4134.871795,4135.384615,4142.435897,4150.51282,4151.794872,4147.435897,4160.128205,235,10,,,,,,,,,,,,,,,,,
3,16,4154.74359,4147.820513,4141.794872,4151.410256,4153.461538,4136.794872,4142.564102,4134.871795,4135.51282,4156.153846,4149.230769,4148.461538,4148.333333,4157.948718,57,12,,,,,,,,,,,,,,,,,
4,16,4148.076923,4145.897436,4138.846154,4141.282051,4151.923077,4132.564102,4144.615384,4132.051282,4132.692307,4155.51282,4148.846154,4143.846154,4143.205128,4154.871795,253,13,,,,,,,,,,,,,,,,,
5,16,4153.974359,4146.538461,4146.153846,4139.358974,4150.25641,4131.410256,4149.102564,4136.025641,4134.230769,4146.923077,4149.102564,4148.205128,4143.846154,4154.871795,230,8,,,,,,,,,,,,,,,,,
6,16,4157.051282,4150.897436,4142.051282,4144.102564,4152.307692,4135.51282,4152.820513,4135.769231,4135.384615,4155.897436,4152.307692,4153.589743,4152.307692,4157.564102,152,12,,,,,,,,,,,,,,,,,
7,16,4158.717949,4148.461538,4144.102564,4143.076923,4149.74359,4136.538461,4149.230769,4128.205128,4132.051282,4154.358974,4154.74359,4152.435897,4154.74359,4161.666666,51,5,,,,,,,,,,,,,,,,,
8,16,4157.948718,4145.641025,4148.461538,4145.641025,4151.282051,4134.615384,4146.666666,4129.102564,4139.487179,4140.897436,4161.538461,4155.51282,4157.948718,4168.589743,127,12,,,,,,,,,,,,,,,,,
9,16,4157.179487,4148.589743,4151.153846,4148.846154,4152.948718,4136.410256,4150.384615,4139.230769,4147.948718,4155.769231,4166.923077,4162.435897,4162.692307,4175.128205,135,13,,,,,,,,,,,,,,,,,
10,16,4156.153846,4143.589743,4145.384615,4139.615384,4145,4136.666666,4150.641025,4136.794872,4141.153846,4176.794872,4157.307692,4155,4156.794872,4167.820513,17,13,,,,,,,,,,,,,,,,,
11,16,4146.410256,4138.717949,4131.410256,4133.076923,4144.230769,4132.948718,4145.25641,4127.692307,4135.641025,4171.282051,4150,4143.461538,4152.564102,4156.025641,16,13,,,,,,,,,,,,,,,,,
12,16,4148.205128,4142.564102,4140.51282,4140,4147.564102,4135,4147.051282,4131.282051,4136.923077,4158.846154,4153.974359,4147.179487,4154.487179,4158.589743,250,12,,,,,,,,,,,,,,,,,
13,16,4155.641025,4147.564102,4144.74359,4144.230769,4154.102564,4138.205128,4154.487179,4134.871795,4141.794872,4167.051282,4155.128205,4151.538461,4156.538461,4165.384615,169,12,,,,,,,,,,,,,,,,,
14,16,4153.333333,4146.410256,4136.794872,4140.51282,4156.282051,4137.435897,4153.846154,4129.487179,4140.897436,4165,4146.794872,4144.74359,4155.769231,4158.589743,17,13,,,,,,,,,,,,,,,,,
15,16,4149.615384,4142.435897,4139.487179,4138.205128,4146.666666,4138.461538,4154.74359,4129.487179,4135.641025,4147.051282,4143.461538,4141.025641,4151.923077,4150.769231,16,13,,,,,,,,,,,,,,,,,
16,16,4147.820513,4143.205128,4137.051282,4136.666666,4147.948718,4138.461538,4165.128205,4136.282051,4143.205128,4153.333333,4149.74359,4143.589743,4151.923077,4155,0,0,,,,,,,,,,,,,,,,,
17,16,4153.076923,4143.846154,4140.384615,4137.307692,4150.897436,4135.641025,4166.794872,4135.769231,4145.384615,4157.307692,4148.076923,4143.846154,4151.153846,4156.923077,0,0,,,,,,,,,,,,,,,,,
18,16,4153.717949,4144.871795,4142.692307,4141.923077,4149.230769,4137.307692,4160.51282,4134.230769,4140.769231,4152.307692,4149.358974,4147.692307,4153.076923,4155.384615,0,0,,,,,,,,,,,,,,,,,
19,16,4150.897436,4145.641025,4140.51282,4143.076923,4154.871795,4139.74359,4160.769231,4138.333333,4145.25641,4168.205128,4159.74359,4156.282051,4159.102564,4162.692307,0,0,,,,,,,,,,,,,,,,,
20,16,4150.641025,4140.769231,4145.128205,4139.230769,4155.51282,4136.794872,4160.51282,4137.948718,4146.153846,4177.692308,4160,4154.487179,4159.74359,4167.564102,0,0,,,,,,,,,,,,,,,,,
21,16,4144.102564,4140.641025,4139.102564,4140.641025,4150,4135.384615,4161.410256,4137.051282,4145.641025,4164.871795,4160.769231,4148.076923,4160.25641,4162.948718,0,0,,,,,,,,,,,,,,,,,
22,16,4147.692307,4145,4140.128205,4146.153846,4148.205128,4137.179487,4164.358974,4138.076923,4144.102564,4157.692307,4160,4148.076923,4157.692307,4158.589743,0,0,,,,,,,,,,,,,,,,,
23,16,4151.282051,4143.846154,4140.641025,4143.076923,4151.538461,4136.282051,4165,4137.307692,4144.230769,4166.666666,4151.923077,4148.205128,4153.974359,4157.692307,0,0,,,,,,,,,,,,,,,,,
24,16,4143.589743,4141.025641,4133.974359,4135.897436,4152.179487,4136.666666,4167.820513,4134.615384,4147.820513,4165.25641,4153.461538,4148.461538,4156.410256,4158.205128,0,0,,,,,,,,,,,,,,,,,
25,16,4149.230769,4142.051282,4137.948718,4138.461538,4149.74359,4140,4171.666667,4133.461538,4142.051282,4156.025641,4152.051282,4145.51282,4152.692307,4156.410256,0,0,,,,,,,,,,,,,,,,,
26,16,4155.128205,4148.846154,4134.871795,4144.871795,4155.897436,4140.25641,4175.897436,4135.51282,4140.51282,4161.025641,4145.128205,4144.74359,4149.615384,4154.230769,0,0,,,,,,,,,,,,,,,,,
27,16,4156.025641,4152.307692,4138.717949,4144.102564,4160.641025,4138.717949,4177.692308,4137.307692,4145.897436,4157.435897,4148.076923,4151.538461,4155.384615,4161.794872,0,0,,,,,,,,,,,,,,,,,
28,16,4154.615384,4148.717949,4139.615384,4138.717949,4156.538461,4138.717949,4175.897436,4136.153846,4142.692307,4145.897436,4150.641025,4152.179487,4156.794872,4166.538461,0,0,,,,,,,,,,,,,,,,,
29,16,4150.128205,4145.25641,4133.974359,4135.128205,4156.794872,4138.717949,4176.794872,4135.384615,4143.846154,4160,4146.282051,4145.51282,4152.179487,4160.384615,0,0,,,,,,,,,,,,,,,,,
30,16,4156.410256,4150.51282,4146.282051,4141.282051,4159.102564,4141.025641,4183.205128,4138.974359,4154.102564,4177.307692,4152.051282,4147.692307,4156.282051,4162.307692,0,0,,,,,,,,,,,,,,,,,
31,16,4155.384615,4157.051282,4147.307692,4147.692307,4164.230769,4142.692307,4190.384615,4140.128205,4157.051282,4171.666667,4164.871795,4157.692307,4166.923077,4170.128205,0,0,,,,,,,,,,,,,,,,,
32,16,4150.25641,4151.923077,4142.948718,4144.615384,4164.74359,4140.769231,4189.230769,4137.692307,4150.128205,4164.871795,4160.25641,4156.794872,4160.25641,4166.794872,0,0,,,,,,,,,,,,,,,,,
33,16,4152.820513,4149.615384,4146.025641,4145.769231,4163.589743,4142.564102,4185.51282,4138.461538,4152.179487,4170.641026,4158.205128,4153.846154,4155.51282,4162.051282,0,0,,,,,,,,,,,,,,,,,
34,16,4153.846154,4156.282051,4145.128205,4153.974359,4173.333333,4144.74359,4182.564102,4139.102564,4160,4172.179487,4170.384615,4158.333333,4166.794872,4163.846154,0,0,,,,,,,,,,,,,,,,,
35,16,4156.923077,4157.435897,4147.692307,4155.641025,4177.692308,4143.846154,4181.794872,4135.769231,4152.179487,4167.820513,4166.410256,4160.128205,4163.205128,4163.974359,0,0,,,,,,,,,,,,,,,,,
36,16,4156.794872,4158.333333,4149.871795,4152.435897,4177.179487,4144.487179,4187.948718,4137.307692,4154.102564,4173.333333,4162.179487,4166.666666,4158.076923,4166.282051,0,0,,,,,,,,,,,,,,,,,
37,16,4161.153846,4162.948718,4154.615384,4154.871795,4177.820513,4144.358974,4185,4142.051282,4166.153846,4175,4172.820513,4171.025641,4167.820513,4171.025641,0,0,,,,,,,,,,,,,,,,,
38,16,4165,4162.948718,4154.102564,4155.641025,4176.666667,4145.25641,4177.179487,4138.974359,4162.948718,4173.333333,4174.230769,4162.692307,4168.589743,4170.641026,0,0,,,,,,,,,,,,,,,,,
39,16,4156.538461,4158.846154,4142.948718,4149.487179,4174.74359,4147.051282,4182.948718,4134.743589,4150.769231,4175,4161.538461,4154.615384,4157.564102,4164.358974,0,0,,,,,,,,,,,,,,,,,
40,16,4154.230769,4155.25641,4144.74359,4147.051282,4172.051282,4148.589743,4189.230769,4135.51282,4140.641025,4157.435897,4150.897436,4151.666666,4151.666666,4160.51282,0,0,,,,,,,,,,,,,,,,,
41,16,4157.179487,4158.205128,4150,4151.538461,4175.384615,4149.358974,4187.692308,4136.923077,4145,4150,4156.410256,4155,4157.051282,4165.384615,0,0,,,,,,,,,,,,,,,,,
42,16,4162.564102,4165.897436,4157.564102,4156.666666,4174.74359,4145.897436,4183.974359,4136.794872,4155.128205,4175.384615,4167.692307,4165.128205,4160.384615,4170,0,0,,,,,,,,,,,,,,,,,
43,16,4168.076923,4164.615384,4163.461538,4155,4169.871795,4142.564102,4183.974359,4136.153846,4158.846154,4185,4172.820513,4171.282051,4161.025641,4170.641026,0,0,,,,,,,,,,,,,,,,,
44,16,4165.897436,4160.897436,4156.923077,4153.205128,4176.153846,4145.25641,4192.051282,4136.538461,4162.948718,4180.51282,4177.692308,4172.435897,4171.923077,4175.128205,0,0,,,,,,,,,,,,,,,,,
45,16,4168.461538,4160.769231,4158.589743,4153.846154,4174.358974,4147.692307,4194.871795,4137.051282,4159.487179,4182.307692,4173.461538,4171.025641,4172.820513,4177.307692,0,0,,,,,,,,,,,,,,,,,
46,16,4163.461538,4159.358974,4151.923077,4151.153846,4163.846154,4142.179487,4190.25641,4136.538461,4152.564102,4171.025641,4165,4162.564102,4160.769231,4171.025641,0,0,,,,,,,,,,,,,,,,,
47,16,4154.74359,4158.846154,4147.179487,4149.74359,4164.615384,4140.897436,4191.794872,4136.153846,4156.153846,4153.205128,4164.615384,4157.307692,4160,4169.615384,0,0,,,,,,,,,,,,,,,,,
48,16,4157.820513,4159.74359,4154.487179,4153.205128,4169.74359,4145.128205,4196.282051,4138.974359,4163.974359,4161.025641,4165.384615,4161.794872,4164.74359,4172.435897,0,0,,,,,,,,,,,,,,,,,
49,16,4154.487179,4159.102564,4143.589743,4149.74359,4172.435897,4149.615384,4197.820513,4140.25641,4162.307692,4181.538461,4160.641025,4158.589743,4159.74359,4163.589743,0,0,,,,,,,,,,,,,,,,,
50,16,4153.076923,4154.230769,4141.025641,4143.589743,4168.461538,4152.820513,4195,4138.846154,4155.769231,4179.487179,4153.461538,4149.230769,4151.025641,4153.974359,0,0,,,,,,,,,,,,,,,,,
51,16,4155.897436,4155.641025,4149.615384,4150,4167.564102,4146.538461,4191.794872,4137.564102,4155.641025,4169.487179,4157.820513,4152.820513,4153.076923,4161.025641,0,0,,,,,,,,,,,,,,,,,
52,16,4154.871795,4163.589743,4153.205128,4157.435897,4172.820513,4137.435897,4192.179487,4137.307692,4157.179487,4170.897436,4163.589743,4160.384615,4157.307692,4169.615384,0,0,,,,,,,,,,,,,,,,,
53,16,4157.692307,4161.666666,4156.282051,4153.717949,4168.076923,4139.871795,4192.179487,4137.820513,4155.25641,4166.538461,4158.333333,4158.205128,4155.641025,4167.435897,0,0,,,,,,,,,,,,,,,,,
54,16,4158.205128,4159.230769,4154.230769,4151.923077,4167.948718,4146.282051,4197.435897,4138.589743,4161.794872,4161.025641,4163.589743,4160.641025,4161.794872,4168.846154,0,0,,,,,,,,,,,,,,,,,
55,16,4162.564102,4160.51282,4160.51282,4156.025641,4173.974359,4144.230769,4205.128205,4140.51282,4168.076923,4165.384615,4169.230769,4166.794872,4164.102564,4173.461538,0,0,,,,,,,,,,,,,,,,,
56,16,4162.307692,4154.74359,4155.897436,4151.666666,4168.333333,4139.615384,4208.076923,4142.179487,4167.820513,4169.615384,4157.948718,4157.564102,4155.641025,4168.974359,0,0,,,,,,,,,,,,,,,,,
57,16,4154.358974,4149.615384,4142.820513,4142.820513,4158.333333,4139.615384,4203.717949,4140.384615,4164.871795,4165.641025,4152.692307,4147.435897,4149.102564,4162.435897,0,0,,,,,,,,,,,,,,,,,
58,16,4152.820513,4148.974359,4148.333333,4141.923077,4156.923077,4140.384615,4195.897436,4138.205128,4156.410256,4155,4155.897436,4150.25641,4144.74359,4159.102564,0,0,,,,,,,,,,,,,,,,,
59,16,4148.717949,4147.307692,4146.410256,4143.076923,4159.487179,4138.717949,4195.25641,4138.076923,4156.666666,4148.205128,4154.230769,4150.51282,4143.461538,4156.153846,0,0,,,,,,,,,,,,,,,,,
60,16,4147.692307,4144.74359,4142.948718,4140.384615,4152.179487,4139.230769,4201.282051,4138.205128,4161.153846,4140.384615,4150.641025,4145.51282,4140.25641,4153.974359,0,0,,,,,,,,,,,,,,,,,
61,16,4148.717949,4148.717949,4146.410256,4141.282051,4149.615384,4139.74359,4206.923077,4135.641025,4161.025641,4142.435897,4158.589743,4149.615384,4143.076923,4154.74359,0,0,,,,,,,,,,,,,,,,,
62,16,4145.384615,4151.282051,4146.153846,4145.25641,4156.025641,4137.692307,4203.974359,4132.435897,4160.769231,4158.974359,4168.461538,4157.435897,4151.794872,4157.051282,0,0,,,,,,,,,,,,,,,,,
63,16,4145.51282,4143.846154,4147.564102,4141.666666,4148.333333,4138.333333,4195.641026,4132.948718,4155.25641,4154.358974,4161.794872,4149.74359,4145.769231,4154.74359,0,0,,,,,,,,,,,,,,,,,
64,16,4141.538461,4141.282051,4140.897436,4136.666666,4142.564102,4137.948718,4199.102564,4134.230769,4156.538461,4146.410256,4157.692307,4143.333333,4140.769231,4152.307692,214,11,,,,,,,,,,,,,,,,,
65,16,4140.51282,4141.666666,4142.692307,4138.333333,4146.923077,4136.153846,4204.102564,4132.692307,4161.923077,4149.487179,4164.487179,4149.871795,4149.102564,4155.51282,243,12,,,,,,,,,,,,,,,,,
66,16,4142.564102,4139.102564,4147.948718,4140.384615,4144.615384,4136.923077,4198.461538,4129.871795,4162.051282,4147.564102,4169.230769,4153.461538,4154.74359,4157.307692,238,10,,,,,,,,,,,,,,,,,
67,16,4140.641025,4140.769231,4144.487179,4139.615384,4140,4137.820513,4197.948718,4127.948718,4160.641025,4147.435897,4167.435897,4152.307692,4152.435897,4155.641025,57,12,,,,,,,,,,,,,,,,,
68,16,4144.102564,4141.923077,4147.051282,4138.846154,4136.666666,4137.307692,4203.333333,4128.205128,4155.769231,4138.846154,4157.948718,4150.51282,4146.153846,4155.128205,253,13,,,,,,,,,,,,,,,,,
69,16,4139.487179,4139.487179,4139.487179,4138.846154,4138.846154,4135.897436,4202.307692,4128.205128,4152.435897,4125.128205,4153.076923,4145,4142.564102,4150.384615,230,8,,,,,,,,,,,,,,,,,
70,16,4133.717948,4134.871795,4136.666666,4136.666666,4138.333333,4134.102564,4198.333333,4125.897436,4148.974359,4125.128205,4154.487179,4138.205128,4138.846154,4139.230769,152,12,,,,,,,,,,,,,,,,,
71,16,4134.230769,4131.153846,4139.230769,4135.128205,4135.128205,4136.282051,4200.51282,4122.307692,4146.410256,4130.769231,4150.51282,4136.666666,4135,4136.025641,51,5,,,,,,,,,,,,,,,,,
